 # E (eV)   ldos(E)
 -10.0000    0.0000E+000
  -9.9800    0.0000E+000
  -9.9600    0.0000E+000
  -9.9399    0.0000E+000
  -9.9199    0.0000E+000
  -9.8999    0.0000E+000
  -9.8799    0.0000E+000
  -9.8599    0.0000E+000
  -9.8398    0.0000E+000
  -9.8198    0.0000E+000
  -9.7998    0.0000E+000
  -9.7798    0.0000E+000
  -9.7598    0.0000E+000
  -9.7397    0.0000E+000
  -9.7197    0.0000E+000
  -9.6997    0.0000E+000
  -9.6797    0.0000E+000
  -9.6597    0.0000E+000
  -9.6396    0.0000E+000
  -9.6196    0.0000E+000
  -9.5996    0.0000E+000
  -9.5796    0.0000E+000
  -9.5596    0.0000E+000
  -9.5395    0.0000E+000
  -9.5195    0.0000E+000
  -9.4995    0.0000E+000
  -9.4795    0.0000E+000
  -9.4595    0.0000E+000
  -9.4394    0.0000E+000
  -9.4194    0.0000E+000
  -9.3994    0.0000E+000
  -9.3794    0.0000E+000
  -9.3594    0.0000E+000
  -9.3393    0.0000E+000
  -9.3193    0.0000E+000
  -9.2993    0.0000E+000
  -9.2793    0.0000E+000
  -9.2593    0.0000E+000
  -9.2392    0.0000E+000
  -9.2192    0.0000E+000
  -9.1992    0.0000E+000
  -9.1792    0.0000E+000
  -9.1592    0.0000E+000
  -9.1391    0.0000E+000
  -9.1191    0.0000E+000
  -9.0991    0.0000E+000
  -9.0791    0.0000E+000
  -9.0591    0.0000E+000
  -9.0390    0.0000E+000
  -9.0190    0.0000E+000
  -8.9990    0.0000E+000
  -8.9790    0.0000E+000
  -8.9590    0.0000E+000
  -8.9389    0.0000E+000
  -8.9189    0.0000E+000
  -8.8989    0.0000E+000
  -8.8789    0.0000E+000
  -8.8589    0.0000E+000
  -8.8388    0.0000E+000
  -8.8188    0.0000E+000
  -8.7988    0.0000E+000
  -8.7788    0.0000E+000
  -8.7588    0.0000E+000
  -8.7387    0.0000E+000
  -8.7187    0.0000E+000
  -8.6987    0.0000E+000
  -8.6787    0.0000E+000
  -8.6587    0.0000E+000
  -8.6386    0.0000E+000
  -8.6186    0.0000E+000
  -8.5986    0.0000E+000
  -8.5786    0.0000E+000
  -8.5586    0.0000E+000
  -8.5385    0.0000E+000
  -8.5185    0.0000E+000
  -8.4985    0.0000E+000
  -8.4785    0.0000E+000
  -8.4585    0.0000E+000
  -8.4384    0.0000E+000
  -8.4184    0.0000E+000
  -8.3984    0.0000E+000
  -8.3784    0.0000E+000
  -8.3584    0.0000E+000
  -8.3383    0.0000E+000
  -8.3183    0.0000E+000
  -8.2983    0.0000E+000
  -8.2783    0.0000E+000
  -8.2583    0.0000E+000
  -8.2382    0.0000E+000
  -8.2182    0.0000E+000
  -8.1982    0.0000E+000
  -8.1782    0.0000E+000
  -8.1582    0.0000E+000
  -8.1381    0.0000E+000
  -8.1181    0.0000E+000
  -8.0981    0.0000E+000
  -8.0781    0.0000E+000
  -8.0581    0.0000E+000
  -8.0380    0.0000E+000
  -8.0180    0.0000E+000
  -7.9980    0.0000E+000
  -7.9780    0.0000E+000
  -7.9580    0.0000E+000
  -7.9379    0.0000E+000
  -7.9179    0.0000E+000
  -7.8979    0.0000E+000
  -7.8779    0.0000E+000
  -7.8579    0.0000E+000
  -7.8378    0.0000E+000
  -7.8178    0.0000E+000
  -7.7978    0.0000E+000
  -7.7778    0.0000E+000
  -7.7578    0.0000E+000
  -7.7377    0.0000E+000
  -7.7177    0.0000E+000
  -7.6977    0.0000E+000
  -7.6777    0.0000E+000
  -7.6577    0.0000E+000
  -7.6376    0.0000E+000
  -7.6176    0.0000E+000
  -7.5976    0.0000E+000
  -7.5776    0.0000E+000
  -7.5576    0.0000E+000
  -7.5375    0.0000E+000
  -7.5175    0.0000E+000
  -7.4975    0.0000E+000
  -7.4775    0.0000E+000
  -7.4575    0.0000E+000
  -7.4374    0.0000E+000
  -7.4174    0.0000E+000
  -7.3974    0.0000E+000
  -7.3774    0.0000E+000
  -7.3574    0.0000E+000
  -7.3373    0.0000E+000
  -7.3173    0.0000E+000
  -7.2973    0.0000E+000
  -7.2773    0.0000E+000
  -7.2573    0.0000E+000
  -7.2372    0.0000E+000
  -7.2172    0.0000E+000
  -7.1972    0.0000E+000
  -7.1772    0.0000E+000
  -7.1572    0.0000E+000
  -7.1371    0.0000E+000
  -7.1171    0.0000E+000
  -7.0971    0.0000E+000
  -7.0771    0.0000E+000
  -7.0571    0.0000E+000
  -7.0370    0.0000E+000
  -7.0170    0.0000E+000
  -6.9970    0.2283E-315
  -6.9770    0.4495E-306
  -6.9570    0.6421E-297
  -6.9369    0.6657E-288
  -6.9169    0.5009E-279
  -6.8969    0.2735E-270
  -6.8769    0.1084E-261
  -6.8569    0.3119E-253
  -6.8368    0.6512E-245
  -6.8168    0.9868E-237
  -6.7968    0.1085E-228
  -6.7768    0.8663E-221
  -6.7568    0.5019E-213
  -6.7367    0.2111E-205
  -6.7167    0.6442E-198
  -6.6967    0.1427E-190
  -6.6767    0.2294E-183
  -6.6567    0.2677E-176
  -6.6366    0.2268E-169
  -6.6166    0.1394E-162
  -6.5966    0.6222E-156
  -6.5766    0.2015E-149
  -6.5566    0.4738E-143
  -6.5365    0.8087E-137
  -6.5165    0.1002E-130
  -6.4965    0.9007E-125
  -6.4765    0.5879E-119
  -6.4565    0.2785E-113
  -6.4364    0.9580E-108
  -6.4164    0.2392E-102
  -6.3964    0.4335E-097
  -6.3764    0.5703E-092
  -6.3564    0.5447E-087
  -6.3363    0.3777E-082
  -6.3163    0.1901E-077
  -6.2963    0.6949E-073
  -6.2763    0.1844E-068
  -6.2563    0.3552E-064
  -6.2362    0.4969E-060
  -6.2162    0.5047E-056
  -6.1962    0.3722E-052
  -6.1762    0.1993E-048
  -6.1562    0.7752E-045
  -6.1361    0.2190E-041
  -6.1161    0.4492E-038
  -6.0961    0.6693E-035
  -6.0761    0.7244E-032
  -6.0561    0.5696E-029
  -6.0360    0.3254E-026
  -6.0160    0.1351E-023
  -5.9960    0.4074E-021
  -5.9760    0.8933E-019
  -5.9560    0.1424E-016
  -5.9359    0.1651E-014
  -5.9159    0.1392E-012
  -5.8959    0.8537E-011
  -5.8759    0.3812E-009
  -5.8559    0.1240E-007
  -5.8358    0.2938E-006
  -5.8158    0.5079E-005
  -5.7958    0.6411E-004
  -5.7758    0.5917E-003
  -5.7558    0.4003E-002
  -5.7357    0.1990E-001
  -5.7157    0.7302E-001
  -5.6957    0.1991E+000
  -5.6757    0.4076E+000
  -5.6557    0.6373E+000
  -5.6356    0.7826E+000
  -5.6156    0.7900E+000
  -5.5956    0.7005E+000
  -5.5756    0.5897E+000
  -5.5556    0.5008E+000
  -5.5355    0.4390E+000
  -5.5155    0.3958E+000
  -5.4955    0.3637E+000
  -5.4755    0.3383E+000
  -5.4555    0.3175E+000
  -5.4354    0.3000E+000
  -5.4154    0.2850E+000
  -5.3954    0.2720E+000
  -5.3754    0.2605E+000
  -5.3554    0.2503E+000
  -5.3353    0.2412E+000
  -5.3153    0.2330E+000
  -5.2953    0.2255E+000
  -5.2753    0.2187E+000
  -5.2553    0.2125E+000
  -5.2352    0.2068E+000
  -5.2152    0.2015E+000
  -5.1952    0.1966E+000
  -5.1752    0.1921E+000
  -5.1552    0.1878E+000
  -5.1351    0.1839E+000
  -5.1151    0.1802E+000
  -5.0951    0.1767E+000
  -5.0751    0.1735E+000
  -5.0551    0.1704E+000
  -5.0350    0.1675E+000
  -5.0150    0.1648E+000
  -4.9950    0.1622E+000
  -4.9750    0.1597E+000
  -4.9550    0.1574E+000
  -4.9349    0.1552E+000
  -4.9149    0.1531E+000
  -4.8949    0.1511E+000
  -4.8749    0.1492E+000
  -4.8549    0.1474E+000
  -4.8348    0.1457E+000
  -4.8148    0.1441E+000
  -4.7948    0.1425E+000
  -4.7748    0.1410E+000
  -4.7548    0.1396E+000
  -4.7347    0.1382E+000
  -4.7147    0.1369E+000
  -4.6947    0.1356E+000
  -4.6747    0.1344E+000
  -4.6547    0.1333E+000
  -4.6346    0.1322E+000
  -4.6146    0.1311E+000
  -4.5946    0.1301E+000
  -4.5746    0.1291E+000
  -4.5546    0.1281E+000
  -4.5345    0.1272E+000
  -4.5145    0.1264E+000
  -4.4945    0.1255E+000
  -4.4745    0.1247E+000
  -4.4545    0.1239E+000
  -4.4344    0.1232E+000
  -4.4144    0.1225E+000
  -4.3944    0.1218E+000
  -4.3744    0.1211E+000
  -4.3544    0.1205E+000
  -4.3343    0.1199E+000
  -4.3143    0.1193E+000
  -4.2943    0.1187E+000
  -4.2743    0.1181E+000
  -4.2543    0.1176E+000
  -4.2342    0.1171E+000
  -4.2142    0.1166E+000
  -4.1942    0.1161E+000
  -4.1742    0.1157E+000
  -4.1542    0.1152E+000
  -4.1341    0.1148E+000
  -4.1141    0.1144E+000
  -4.0941    0.1140E+000
  -4.0741    0.1136E+000
  -4.0541    0.1133E+000
  -4.0340    0.1129E+000
  -4.0140    0.1126E+000
  -3.9940    0.1123E+000
  -3.9740    0.1119E+000
  -3.9540    0.1116E+000
  -3.9339    0.1114E+000
  -3.9139    0.1111E+000
  -3.8939    0.1108E+000
  -3.8739    0.1105E+000
  -3.8539    0.1103E+000
  -3.8338    0.1101E+000
  -3.8138    0.1098E+000
  -3.7938    0.1096E+000
  -3.7738    0.1094E+000
  -3.7538    0.1092E+000
  -3.7337    0.1090E+000
  -3.7137    0.1088E+000
  -3.6937    0.1086E+000
  -3.6737    0.1084E+000
  -3.6537    0.1083E+000
  -3.6336    0.1081E+000
  -3.6136    0.1080E+000
  -3.5936    0.1078E+000
  -3.5736    0.1077E+000
  -3.5536    0.1075E+000
  -3.5335    0.1074E+000
  -3.5135    0.1073E+000
  -3.4935    0.1072E+000
  -3.4735    0.1076E+000
  -3.4535    0.1113E+000
  -3.4334    0.1324E+000
  -3.4134    0.2162E+000
  -3.3934    0.4542E+000
  -3.3734    0.9302E+000
  -3.3534    0.1583E+001
  -3.3333    0.2154E+001
  -3.3133    0.2383E+001
  -3.2933    0.2255E+001
  -3.2733    0.1959E+001
  -3.2533    0.1678E+001
  -3.2332    0.1473E+001
  -3.2132    0.1332E+001
  -3.1932    0.1231E+001
  -3.1732    0.1154E+001
  -3.1532    0.1092E+001
  -3.1331    0.1040E+001
  -3.1131    0.9967E+000
  -3.0931    0.9590E+000
  -3.0731    0.9260E+000
  -3.0531    0.8969E+000
  -3.0330    0.8709E+000
  -3.0130    0.8476E+000
  -2.9930    0.8265E+000
  -2.9730    0.8073E+000
  -2.9530    0.7898E+000
  -2.9329    0.7737E+000
  -2.9129    0.7588E+000
  -2.8929    0.7451E+000
  -2.8729    0.7324E+000
  -2.8529    0.7205E+000
  -2.8328    0.7095E+000
  -2.8128    0.6991E+000
  -2.7928    0.6894E+000
  -2.7728    0.6803E+000
  -2.7528    0.6717E+000
  -2.7327    0.6636E+000
  -2.7127    0.6560E+000
  -2.6927    0.6487E+000
  -2.6727    0.6419E+000
  -2.6527    0.6353E+000
  -2.6326    0.6291E+000
  -2.6126    0.6233E+000
  -2.5926    0.6176E+000
  -2.5726    0.6123E+000
  -2.5526    0.6072E+000
  -2.5325    0.6023E+000
  -2.5125    0.5976E+000
  -2.4925    0.5931E+000
  -2.4725    0.5888E+000
  -2.4525    0.5847E+000
  -2.4324    0.5807E+000
  -2.4124    0.5769E+000
  -2.3924    0.5732E+000
  -2.3724    0.5697E+000
  -2.3524    0.5663E+000
  -2.3323    0.5630E+000
  -2.3123    0.5599E+000
  -2.2923    0.5568E+000
  -2.2723    0.5539E+000
  -2.2523    0.5511E+000
  -2.2322    0.5483E+000
  -2.2122    0.5457E+000
  -2.1922    0.5431E+000
  -2.1722    0.5407E+000
  -2.1522    0.5383E+000
  -2.1321    0.5360E+000
  -2.1121    0.5338E+000
  -2.0921    0.5316E+000
  -2.0721    0.5295E+000
  -2.0521    0.5275E+000
  -2.0320    0.5256E+000
  -2.0120    0.5237E+000
  -1.9920    0.5219E+000
  -1.9720    0.5202E+000
  -1.9520    0.5185E+000
  -1.9319    0.5169E+000
  -1.9119    0.5154E+000
  -1.8919    0.5139E+000
  -1.8719    0.5125E+000
  -1.8519    0.5111E+000
  -1.8318    0.5100E+000
  -1.8118    0.5103E+000
  -1.7918    0.5201E+000
  -1.7718    0.5751E+000
  -1.7518    0.7808E+000
  -1.7317    0.1324E+001
  -1.7117    0.2328E+001
  -1.6917    0.3592E+001
  -1.6717    0.4581E+001
  -1.6517    0.4878E+001
  -1.6316    0.4560E+001
  -1.6116    0.4016E+001
  -1.5916    0.3540E+001
  -1.5716    0.3209E+001
  -1.5516    0.2987E+001
  -1.5315    0.2835E+001
  -1.5115    0.2740E+001
  -1.4915    0.2727E+001
  -1.4715    0.2856E+001
  -1.4515    0.3158E+001
  -1.4314    0.3551E+001
  -1.4114    0.3835E+001
  -1.3914    0.3871E+001
  -1.3714    0.3699E+001
  -1.3514    0.3467E+001
  -1.3313    0.3276E+001
  -1.3113    0.3150E+001
  -1.2913    0.3072E+001
  -1.2713    0.3027E+001
  -1.2513    0.3005E+001
  -1.2312    0.3001E+001
  -1.2112    0.3015E+001
  -1.1912    0.3047E+001
  -1.1712    0.3099E+001
  -1.1512    0.3176E+001
  -1.1311    0.3288E+001
  -1.1111    0.3452E+001
  -1.0911    0.3705E+001
  -1.0711    0.4087E+001
  -1.0511    0.4581E+001
  -1.0310    0.4989E+001
  -1.0110    0.4945E+001
  -0.9910    0.4224E+001
  -0.9710    0.3060E+001
  -0.9510    0.1978E+001
  -0.9309    0.1308E+001
  -0.9109    0.1019E+001
  -0.8909    0.9314E+000
  -0.8709    0.9141E+000
  -0.8509    0.9139E+000
  -0.8308    0.9171E+000
  -0.8108    0.9213E+000
  -0.7908    0.9262E+000
  -0.7708    0.9318E+000
  -0.7508    0.9379E+000
  -0.7307    0.9446E+000
  -0.7107    0.9519E+000
  -0.6907    0.9598E+000
  -0.6707    0.9683E+000
  -0.6507    0.9775E+000
  -0.6306    0.9872E+000
  -0.6106    0.9976E+000
  -0.5906    0.1009E+001
  -0.5706    0.1021E+001
  -0.5506    0.1033E+001
  -0.5305    0.1047E+001
  -0.5105    0.1062E+001
  -0.4905    0.1078E+001
  -0.4705    0.1096E+001
  -0.4505    0.1115E+001
  -0.4304    0.1137E+001
  -0.4104    0.1162E+001
  -0.3904    0.1191E+001
  -0.3704    0.1224E+001
  -0.3504    0.1265E+001
  -0.3303    0.1317E+001
  -0.3103    0.1386E+001
  -0.2903    0.1485E+001
  -0.2703    0.1620E+001
  -0.2503    0.1770E+001
  -0.2302    0.1863E+001
  -0.2102    0.1807E+001
  -0.1902    0.1590E+001
  -0.1702    0.1322E+001
  -0.1502    0.1129E+001
  -0.1301    0.1061E+001
  -0.1101    0.1093E+001
  -0.0901    0.1199E+001
  -0.0701    0.1363E+001
  -0.0501    0.1546E+001
  -0.0300    0.1639E+001
  -0.0100    0.1514E+001
   0.0100    0.1159E+001
   0.0300    0.7297E+000
   0.0501    0.4005E+000
   0.0701    0.2268E+000
   0.0901    0.1608E+000
   0.1101    0.1410E+000
   0.1301    0.1347E+000
   0.1502    0.1311E+000
   0.1702    0.1281E+000
   0.1902    0.1253E+000
   0.2102    0.1226E+000
   0.2302    0.1200E+000
   0.2503    0.1175E+000
   0.2703    0.1151E+000
   0.2903    0.1129E+000
   0.3103    0.1107E+000
   0.3303    0.1086E+000
   0.3504    0.1066E+000
   0.3704    0.1047E+000
   0.3904    0.1029E+000
   0.4104    0.1012E+000
   0.4304    0.9954E-001
   0.4505    0.9798E-001
   0.4705    0.9642E-001
   0.4905    0.9498E-001
   0.5105    0.9361E-001
   0.5305    0.9220E-001
   0.5506    0.9098E-001
   0.5706    0.8975E-001
   0.5906    0.8845E-001
   0.6106    0.8746E-001
   0.6306    0.8633E-001
   0.6507    0.8511E-001
   0.6707    0.8436E-001
   0.6907    0.8331E-001
   0.7107    0.8211E-001
   0.7307    0.8158E-001
   0.7508    0.8067E-001
   0.7708    0.7940E-001
   0.7908    0.7905E-001
   0.8108    0.7841E-001
   0.8308    0.7698E-001
   0.8509    0.7663E-001
   0.8709    0.7647E-001
   0.8909    0.7496E-001
   0.9109    0.7424E-001
   0.9309    0.7464E-001
   0.9510    0.7348E-001
   0.9710    0.7203E-001
   0.9910    0.7257E-001
   1.0110    0.7244E-001
   1.0310    0.7044E-001
   1.0511    0.7013E-001
   1.0711    0.7120E-001
   1.0911    0.6985E-001
   1.1111    0.6797E-001
   1.1311    0.6899E-001
   1.1512    0.6963E-001
   1.1712    0.6726E-001
   1.1912    0.6622E-001
   1.2112    0.6812E-001
   1.2312    0.6785E-001
   1.2513    0.6497E-001
   1.2713    0.6500E-001
   1.2913    0.6729E-001
   1.3113    0.6608E-001
   1.3313    0.6306E-001
   1.3514    0.6402E-001
   1.3714    0.6644E-001
   1.3914    0.6450E-001
   1.4114    0.6146E-001
   1.4314    0.6311E-001
   1.4515    0.6564E-001
   1.4715    0.6322E-001
   1.4915    0.6008E-001
   1.5115    0.6213E-001
   1.5315    0.6491E-001
   1.5516    0.6231E-001
   1.5716    0.5888E-001
   1.5916    0.6102E-001
   1.6116    0.6426E-001
   1.6316    0.6179E-001
   1.6517    0.5787E-001
   1.6717    0.5974E-001
   1.6917    0.6358E-001
   1.7117    0.6166E-001
   1.7317    0.5714E-001
   1.7518    0.5828E-001
   1.7718    0.6275E-001
   1.7918    0.6186E-001
   1.8118    0.5685E-001
   1.8318    0.5676E-001
   1.8519    0.6161E-001
   1.8719    0.6222E-001
   1.8919    0.5711E-001
   1.9119    0.5536E-001
   1.9319    0.6004E-001
   1.9520    0.6247E-001
   1.9720    0.5796E-001
   1.9920    0.5440E-001
   2.0120    0.5808E-001
   2.0320    0.6228E-001
   2.0521    0.5927E-001
   2.0721    0.5419E-001
   2.0921    0.5597E-001
   2.1121    0.6137E-001
   2.1321    0.6066E-001
   2.1522    0.5491E-001
   2.1722    0.5414E-001
   2.1922    0.5967E-001
   2.2122    0.6167E-001
   2.2322    0.5649E-001
   2.2523    0.5310E-001
   2.2723    0.5739E-001
   2.2923    0.6181E-001
   2.3123    0.5854E-001
   2.3323    0.5321E-001
   2.3524    0.5507E-001
   2.3724    0.6086E-001
   2.3924    0.6045E-001
   2.4124    0.5451E-001
   2.4324    0.5334E-001
   2.4525    0.5897E-001
   2.4725    0.6160E-001
   2.4925    0.5665E-001
   2.5125    0.5274E-001
   2.5325    0.5667E-001
   2.5526    0.6162E-001
   2.5726    0.5901E-001
   2.5926    0.5343E-001
   2.6126    0.5463E-001
   2.6326    0.6054E-001
   2.6527    0.6091E-001
   2.6727    0.5519E-001
   2.6927    0.5345E-001
   2.7127    0.5877E-001
   2.7327    0.6190E-001
   2.7528    0.5748E-001
   2.7728    0.5340E-001
   2.7928    0.5692E-001
   2.8128    0.6189E-001
   2.8328    0.5969E-001
   2.8529    0.5441E-001
   2.8729    0.5553E-001
   2.8929    0.6114E-001
   2.9129    0.6140E-001
   2.9329    0.5610E-001
   2.9530    0.5492E-001
   2.9730    0.6008E-001
   2.9930    0.6245E-001
   3.0130    0.5804E-001
   3.0330    0.5512E-001
   3.0531    0.5913E-001
   3.0731    0.6292E-001
   3.0931    0.5987E-001
   3.1131    0.5594E-001
   3.1331    0.5859E-001
   3.1532    0.6307E-001
   3.1732    0.6141E-001
   3.1932    0.5714E-001
   3.2132    0.5855E-001
   3.2332    0.6318E-001
   3.2533    0.6264E-001
   3.2733    0.5847E-001
   3.2933    0.5902E-001
   3.3133    0.6346E-001
   3.3333    0.6363E-001
   3.3534    0.5979E-001
   3.3734    0.5990E-001
   3.3934    0.6404E-001
   3.4134    0.6449E-001
   3.4334    0.6104E-001
   3.4535    0.6114E-001
   3.4735    0.6495E-001
   3.4935    0.6529E-001
   3.5135    0.6226E-001
   3.5335    0.6272E-001
   3.5536    0.6617E-001
   3.5736    0.6609E-001
   3.5936    0.6356E-001
   3.6136    0.6464E-001
   3.6336    0.6759E-001
   3.6537    0.6691E-001
   3.6737    0.6511E-001
   3.6937    0.6692E-001
   3.7137    0.6908E-001
   3.7337    0.6786E-001
   3.7538    0.6716E-001
   3.7738    0.6945E-001
   3.7938    0.7047E-001
   3.8138    0.6921E-001
   3.8338    0.6986E-001
   3.8539    0.7196E-001
   3.8739    0.7186E-001
   3.8939    0.7139E-001
   3.9139    0.7306E-001
   3.9339    0.7418E-001
   3.9540    0.7376E-001
   3.9740    0.7463E-001
   3.9940    0.7622E-001
   4.0140    0.7641E-001
   4.0340    0.7688E-001
   4.0541    0.7842E-001
   4.0741    0.7916E-001
   4.0941    0.7966E-001
   4.1141    0.8108E-001
   4.1341    0.8215E-001
   4.1542    0.8290E-001
   4.1742    0.8430E-001
   4.1942    0.8558E-001
   4.2142    0.8666E-001
   4.2342    0.8818E-001
   4.2543    0.8965E-001
   4.2743    0.9110E-001
   4.2943    0.9285E-001
   4.3143    0.9460E-001
   4.3343    0.9647E-001
   4.3544    0.9857E-001
   4.3744    0.1008E+000
   4.3944    0.1032E+000
   4.4144    0.1058E+000
   4.4344    0.1086E+000
   4.4545    0.1118E+000
   4.4745    0.1153E+000
   4.4945    0.1191E+000
   4.5145    0.1235E+000
   4.5345    0.1284E+000
   4.5546    0.1341E+000
   4.5746    0.1407E+000
   4.5946    0.1486E+000
   4.6146    0.1581E+000
   4.6346    0.1702E+000
   4.6547    0.1864E+000
   4.6747    0.2096E+000
   4.6947    0.2433E+000
   4.7147    0.2861E+000
   4.7347    0.3223E+000
   4.7548    0.3220E+000
   4.7748    0.2664E+000
   4.7948    0.1740E+000
   4.8148    0.8701E-001
   4.8348    0.3273E-001
   4.8549    0.9159E-002
   4.8749    0.1893E-002
   4.8949    0.2878E-003
   4.9149    0.3206E-004
   4.9349    0.2613E-005
   4.9550    0.1555E-006
   4.9750    0.6752E-008
   4.9950    0.2137E-009
   5.0150    0.4925E-011
   5.0350    0.8262E-013
   5.0551    0.1009E-014
   5.0751    0.8958E-017
   5.0951    0.5785E-019
   5.1151    0.2716E-021
   5.1351    0.9267E-024
   5.1552    0.2298E-026
   5.1752    0.4142E-029
   5.1952    0.5423E-032
   5.2152    0.5158E-035
   5.2352    0.3564E-038
   5.2553    0.1789E-041
   5.2753    0.6520E-045
   5.2953    0.1726E-048
   5.3153    0.3318E-052
   5.3353    0.4632E-056
   5.3554    0.4695E-060
   5.3754    0.3456E-064
   5.3954    0.1847E-068
   5.4154    0.7166E-073
   5.4354    0.2019E-077
   5.4555    0.4129E-082
   5.4755    0.6130E-087
   5.4955    0.6609E-092
   5.5155    0.5172E-097
   5.5355    0.2938E-102
   5.5556    0.1212E-107
   5.5756    0.3627E-113
   5.5956    0.7883E-119
   5.6156    0.1244E-124
   5.6356    0.1424E-130
   5.6557    0.1184E-136
   5.6757    0.7143E-143
   5.6957    0.3129E-149
   5.7157    0.9946E-156
   5.7357    0.2295E-162
   5.7558    0.3844E-169
   5.7758    0.4674E-176
   5.7958    0.4125E-183
   5.8158    0.2642E-190
   5.8358    0.1228E-197
   5.8559    0.4145E-205
   5.8759    0.1015E-212
   5.8959    0.1805E-220
   5.9159    0.2329E-228
   5.9359    0.2181E-236
   5.9560    0.1483E-244
   5.9760    0.7316E-253
   5.9960    0.2620E-261
   6.0160    0.6809E-270
   6.0360    0.1285E-278
   6.0561    0.1759E-287
   6.0761    0.1748E-296
   6.0961    0.1261E-305
   6.1161    0.6599E-315
   6.1361    0.0000E+000
   6.1562    0.0000E+000
   6.1762    0.0000E+000
   6.1962    0.0000E+000
   6.2162    0.0000E+000
   6.2362    0.0000E+000
   6.2563    0.0000E+000
   6.2763    0.0000E+000
   6.2963    0.0000E+000
   6.3163    0.0000E+000
   6.3363    0.0000E+000
   6.3564    0.0000E+000
   6.3764    0.0000E+000
   6.3964    0.0000E+000
   6.4164    0.0000E+000
   6.4364    0.0000E+000
   6.4565    0.0000E+000
   6.4765    0.0000E+000
   6.4965    0.0000E+000
   6.5165    0.0000E+000
   6.5365    0.0000E+000
   6.5566    0.0000E+000
   6.5766    0.0000E+000
   6.5966    0.0000E+000
   6.6166    0.0000E+000
   6.6366    0.0000E+000
   6.6567    0.0000E+000
   6.6767    0.0000E+000
   6.6967    0.0000E+000
   6.7167    0.0000E+000
   6.7367    0.0000E+000
   6.7568    0.0000E+000
   6.7768    0.0000E+000
   6.7968    0.0000E+000
   6.8168    0.0000E+000
   6.8368    0.0000E+000
   6.8569    0.0000E+000
   6.8769    0.0000E+000
   6.8969    0.0000E+000
   6.9169    0.0000E+000
   6.9369    0.0000E+000
   6.9570    0.0000E+000
   6.9770    0.0000E+000
   6.9970    0.0000E+000
   7.0170    0.0000E+000
   7.0370    0.0000E+000
   7.0571    0.0000E+000
   7.0771    0.0000E+000
   7.0971    0.0000E+000
   7.1171    0.0000E+000
   7.1371    0.0000E+000
   7.1572    0.0000E+000
   7.1772    0.0000E+000
   7.1972    0.0000E+000
   7.2172    0.0000E+000
   7.2372    0.0000E+000
   7.2573    0.0000E+000
   7.2773    0.0000E+000
   7.2973    0.0000E+000
   7.3173    0.0000E+000
   7.3373    0.0000E+000
   7.3574    0.0000E+000
   7.3774    0.0000E+000
   7.3974    0.0000E+000
   7.4174    0.0000E+000
   7.4374    0.0000E+000
   7.4575    0.0000E+000
   7.4775    0.0000E+000
   7.4975    0.0000E+000
   7.5175    0.0000E+000
   7.5375    0.0000E+000
   7.5576    0.0000E+000
   7.5776    0.0000E+000
   7.5976    0.0000E+000
   7.6176    0.0000E+000
   7.6376    0.0000E+000
   7.6577    0.0000E+000
   7.6777    0.0000E+000
   7.6977    0.0000E+000
   7.7177    0.0000E+000
   7.7377    0.0000E+000
   7.7578    0.0000E+000
   7.7778    0.0000E+000
   7.7978    0.0000E+000
   7.8178    0.0000E+000
   7.8378    0.0000E+000
   7.8579    0.0000E+000
   7.8779    0.0000E+000
   7.8979    0.0000E+000
   7.9179    0.0000E+000
   7.9379    0.0000E+000
   7.9580    0.0000E+000
   7.9780    0.0000E+000
   7.9980    0.0000E+000
   8.0180    0.0000E+000
   8.0380    0.0000E+000
   8.0581    0.0000E+000
   8.0781    0.0000E+000
   8.0981    0.0000E+000
   8.1181    0.0000E+000
   8.1381    0.0000E+000
   8.1582    0.0000E+000
   8.1782    0.0000E+000
   8.1982    0.0000E+000
   8.2182    0.0000E+000
   8.2382    0.0000E+000
   8.2583    0.0000E+000
   8.2783    0.0000E+000
   8.2983    0.0000E+000
   8.3183    0.0000E+000
   8.3383    0.0000E+000
   8.3584    0.0000E+000
   8.3784    0.0000E+000
   8.3984    0.0000E+000
   8.4184    0.0000E+000
   8.4384    0.0000E+000
   8.4585    0.0000E+000
   8.4785    0.0000E+000
   8.4985    0.0000E+000
   8.5185    0.0000E+000
   8.5385    0.0000E+000
   8.5586    0.0000E+000
   8.5786    0.0000E+000
   8.5986    0.0000E+000
   8.6186    0.0000E+000
   8.6386    0.0000E+000
   8.6587    0.0000E+000
   8.6787    0.0000E+000
   8.6987    0.0000E+000
   8.7187    0.0000E+000
   8.7387    0.0000E+000
   8.7588    0.0000E+000
   8.7788    0.0000E+000
   8.7988    0.0000E+000
   8.8188    0.0000E+000
   8.8388    0.0000E+000
   8.8589    0.0000E+000
   8.8789    0.0000E+000
   8.8989    0.0000E+000
   8.9189    0.0000E+000
   8.9389    0.0000E+000
   8.9590    0.0000E+000
   8.9790    0.0000E+000
   8.9990    0.0000E+000
   9.0190    0.0000E+000
   9.0390    0.0000E+000
   9.0591    0.0000E+000
   9.0791    0.0000E+000
   9.0991    0.0000E+000
   9.1191    0.0000E+000
   9.1391    0.0000E+000
   9.1592    0.0000E+000
   9.1792    0.0000E+000
   9.1992    0.0000E+000
   9.2192    0.0000E+000
   9.2392    0.0000E+000
   9.2593    0.0000E+000
   9.2793    0.0000E+000
   9.2993    0.0000E+000
   9.3193    0.0000E+000
   9.3393    0.0000E+000
   9.3594    0.0000E+000
   9.3794    0.0000E+000
   9.3994    0.0000E+000
   9.4194    0.0000E+000
   9.4394    0.0000E+000
   9.4595    0.0000E+000
   9.4795    0.0000E+000
   9.4995    0.0000E+000
   9.5195    0.0000E+000
   9.5395    0.0000E+000
   9.5596    0.0000E+000
   9.5796    0.0000E+000
   9.5996    0.0000E+000
   9.6196    0.0000E+000
   9.6396    0.0000E+000
   9.6597    0.0000E+000
   9.6797    0.0000E+000
   9.6997    0.0000E+000
   9.7197    0.0000E+000
   9.7397    0.0000E+000
   9.7598    0.0000E+000
   9.7798    0.0000E+000
   9.7998    0.0000E+000
   9.8198    0.0000E+000
   9.8398    0.0000E+000
   9.8599    0.0000E+000
   9.8799    0.0000E+000
   9.8999    0.0000E+000
   9.9199    0.0000E+000
   9.9399    0.0000E+000
   9.9600    0.0000E+000
   9.9800    0.0000E+000
  10.0000    0.0000E+000
