 # E (eV)   ldos(E)
  -5.0000    0.0000E+000
  -4.9925    0.0000E+000
  -4.9850    0.0000E+000
  -4.9775    0.0000E+000
  -4.9700    0.0000E+000
  -4.9625    0.0000E+000
  -4.9550    0.0000E+000
  -4.9475    0.0000E+000
  -4.9400    0.0000E+000
  -4.9325    0.0000E+000
  -4.9250    0.0000E+000
  -4.9175    0.0000E+000
  -4.9100    0.0000E+000
  -4.9025    0.0000E+000
  -4.8949    0.0000E+000
  -4.8874    0.0000E+000
  -4.8799    0.0000E+000
  -4.8724    0.0000E+000
  -4.8649    0.0000E+000
  -4.8574    0.0000E+000
  -4.8499    0.0000E+000
  -4.8424    0.0000E+000
  -4.8349    0.0000E+000
  -4.8274    0.0000E+000
  -4.8199    0.0000E+000
  -4.8124    0.0000E+000
  -4.8049    0.0000E+000
  -4.7974    0.0000E+000
  -4.7899    0.0000E+000
  -4.7824    0.0000E+000
  -4.7749    0.0000E+000
  -4.7674    0.0000E+000
  -4.7599    0.0000E+000
  -4.7524    0.0000E+000
  -4.7449    0.0000E+000
  -4.7374    0.0000E+000
  -4.7299    0.0000E+000
  -4.7224    0.0000E+000
  -4.7149    0.0000E+000
  -4.7074    0.0000E+000
  -4.6998    0.0000E+000
  -4.6923    0.0000E+000
  -4.6848    0.0000E+000
  -4.6773    0.0000E+000
  -4.6698    0.0000E+000
  -4.6623    0.0000E+000
  -4.6548    0.0000E+000
  -4.6473    0.0000E+000
  -4.6398    0.0000E+000
  -4.6323    0.0000E+000
  -4.6248    0.0000E+000
  -4.6173    0.0000E+000
  -4.6098    0.0000E+000
  -4.6023    0.0000E+000
  -4.5948    0.0000E+000
  -4.5873    0.0000E+000
  -4.5798    0.0000E+000
  -4.5723    0.0000E+000
  -4.5648    0.0000E+000
  -4.5573    0.0000E+000
  -4.5498    0.0000E+000
  -4.5423    0.0000E+000
  -4.5348    0.0000E+000
  -4.5273    0.0000E+000
  -4.5198    0.0000E+000
  -4.5123    0.0000E+000
  -4.5048    0.0000E+000
  -4.4972    0.0000E+000
  -4.4897    0.1321E-304
  -4.4822    0.3699E-301
  -4.4747    0.9821E-298
  -4.4672    0.2492E-294
  -4.4597    0.6047E-291
  -4.4522    0.1403E-287
  -4.4447    0.3110E-284
  -4.4372    0.6593E-281
  -4.4297    0.1336E-277
  -4.4222    0.2588E-274
  -4.4147    0.4792E-271
  -4.4072    0.8484E-268
  -4.3997    0.1436E-264
  -4.3922    0.2323E-261
  -4.3847    0.3593E-258
  -4.3772    0.5312E-255
  -4.3697    0.7508E-252
  -4.3622    0.1015E-248
  -4.3547    0.1310E-245
  -4.3472    0.1618E-242
  -4.3397    0.1910E-239
  -4.3322    0.2156E-236
  -4.3247    0.2326E-233
  -4.3172    0.2399E-230
  -4.3097    0.2365E-227
  -4.3022    0.2229E-224
  -4.2946    0.2008E-221
  -4.2871    0.1730E-218
  -4.2796    0.1424E-215
  -4.2721    0.1121E-212
  -4.2646    0.8438E-210
  -4.2571    0.6071E-207
  -4.2496    0.4175E-204
  -4.2421    0.2745E-201
  -4.2346    0.1725E-198
  -4.2271    0.1037E-195
  -4.2196    0.5954E-193
  -4.2121    0.3269E-190
  -4.2046    0.1716E-187
  -4.1971    0.8613E-185
  -4.1896    0.4132E-182
  -4.1821    0.1895E-179
  -4.1746    0.8308E-177
  -4.1671    0.3482E-174
  -4.1596    0.1395E-171
  -4.1521    0.5345E-169
  -4.1446    0.1957E-166
  -4.1371    0.6851E-164
  -4.1296    0.2293E-161
  -4.1221    0.7335E-159
  -4.1146    0.2243E-156
  -4.1071    0.6560E-154
  -4.0995    0.1833E-151
  -4.0920    0.4899E-149
  -4.0845    0.1252E-146
  -4.0770    0.3056E-144
  -4.0695    0.7135E-142
  -4.0620    0.1592E-139
  -4.0545    0.3398E-137
  -4.0470    0.6930E-135
  -4.0395    0.1351E-132
  -4.0320    0.2519E-130
  -4.0245    0.4489E-128
  -4.0170    0.7648E-126
  -4.0095    0.1246E-123
  -4.0020    0.1939E-121
  -3.9945    0.2887E-119
  -3.9870    0.4108E-117
  -3.9795    0.5588E-115
  -3.9720    0.7267E-113
  -3.9645    0.9035E-111
  -3.9570    0.1074E-108
  -3.9495    0.1220E-106
  -3.9420    0.1325E-104
  -3.9345    0.1376E-102
  -3.9270    0.1366E-100
  -3.9195    0.1297E-098
  -3.9120    0.1177E-096
  -3.9045    0.1021E-094
  -3.8969    0.8464E-093
  -3.8894    0.6710E-091
  -3.8819    0.5085E-089
  -3.8744    0.3685E-087
  -3.8669    0.2552E-085
  -3.8594    0.1690E-083
  -3.8519    0.1070E-081
  -3.8444    0.6475E-080
  -3.8369    0.3747E-078
  -3.8294    0.2072E-076
  -3.8219    0.1096E-074
  -3.8144    0.5540E-073
  -3.8069    0.2678E-071
  -3.7994    0.1237E-069
  -3.7919    0.5466E-068
  -3.7844    0.2308E-066
  -3.7769    0.9319E-065
  -3.7694    0.3597E-063
  -3.7619    0.1327E-061
  -3.7544    0.4683E-060
  -3.7469    0.1579E-058
  -3.7394    0.5093E-057
  -3.7319    0.1570E-055
  -3.7244    0.4627E-054
  -3.7169    0.1304E-052
  -3.7094    0.3512E-051
  -3.7019    0.9045E-050
  -3.6943    0.2227E-048
  -3.6868    0.5242E-047
  -3.6793    0.1180E-045
  -3.6718    0.2538E-044
  -3.6643    0.5222E-043
  -3.6568    0.1027E-041
  -3.6493    0.1931E-040
  -3.6418    0.3471E-039
  -3.6343    0.5966E-038
  -3.6268    0.9802E-037
  -3.6193    0.1540E-035
  -3.6118    0.2313E-034
  -3.6043    0.3322E-033
  -3.5968    0.4561E-032
  -3.5893    0.5987E-031
  -3.5818    0.7514E-030
  -3.5743    0.9017E-029
  -3.5668    0.1035E-027
  -3.5593    0.1135E-026
  -3.5518    0.1190E-025
  -3.5443    0.1194E-024
  -3.5368    0.1145E-023
  -3.5293    0.1049E-022
  -3.5218    0.9198E-022
  -3.5143    0.7710E-021
  -3.5068    0.6179E-020
  -3.4992    0.4735E-019
  -3.4917    0.3469E-018
  -3.4842    0.2431E-017
  -3.4767    0.1628E-016
  -3.4692    0.1043E-015
  -3.4617    0.6390E-015
  -3.4542    0.3743E-014
  -3.4467    0.2097E-013
  -3.4392    0.1123E-012
  -3.4317    0.5753E-012
  -3.4242    0.2818E-011
  -3.4167    0.1320E-010
  -3.4092    0.5915E-010
  -3.4017    0.2534E-009
  -3.3942    0.1038E-008
  -3.3867    0.4070E-008
  -3.3792    0.1526E-007
  -3.3717    0.5470E-007
  -3.3642    0.1876E-006
  -3.3567    0.6155E-006
  -3.3492    0.1931E-005
  -3.3417    0.5798E-005
  -3.3342    0.1665E-004
  -3.3267    0.4576E-004
  -3.3192    0.1203E-003
  -3.3117    0.3027E-003
  -3.3042    0.7289E-003
  -3.2966    0.1679E-002
  -3.2891    0.3704E-002
  -3.2816    0.7821E-002
  -3.2741    0.1581E-001
  -3.2666    0.3060E-001
  -3.2591    0.5674E-001
  -3.2516    0.1008E+000
  -3.2441    0.1715E+000
  -3.2366    0.2797E+000
  -3.2291    0.4374E+000
  -3.2216    0.6561E+000
  -3.2141    0.9444E+000
  -3.2066    0.1305E+001
  -3.1991    0.1734E+001
  -3.1916    0.2214E+001
  -3.1841    0.2722E+001
  -3.1766    0.3225E+001
  -3.1691    0.3688E+001
  -3.1616    0.4077E+001
  -3.1541    0.4367E+001
  -3.1466    0.4544E+001
  -3.1391    0.4606E+001
  -3.1316    0.4563E+001
  -3.1241    0.4437E+001
  -3.1166    0.4250E+001
  -3.1091    0.4029E+001
  -3.1016    0.3795E+001
  -3.0940    0.3564E+001
  -3.0865    0.3350E+001
  -3.0790    0.3156E+001
  -3.0715    0.2986E+001
  -3.0640    0.2838E+001
  -3.0565    0.2710E+001
  -3.0490    0.2598E+001
  -3.0415    0.2501E+001
  -3.0340    0.2415E+001
  -3.0265    0.2339E+001
  -3.0190    0.2270E+001
  -3.0115    0.2208E+001
  -3.0040    0.2150E+001
  -2.9965    0.2098E+001
  -2.9890    0.2049E+001
  -2.9815    0.2004E+001
  -2.9740    0.1962E+001
  -2.9665    0.1922E+001
  -2.9590    0.1885E+001
  -2.9515    0.1850E+001
  -2.9440    0.1817E+001
  -2.9365    0.1785E+001
  -2.9290    0.1756E+001
  -2.9215    0.1727E+001
  -2.9140    0.1701E+001
  -2.9065    0.1675E+001
  -2.8989    0.1650E+001
  -2.8914    0.1627E+001
  -2.8839    0.1604E+001
  -2.8764    0.1583E+001
  -2.8689    0.1562E+001
  -2.8614    0.1542E+001
  -2.8539    0.1523E+001
  -2.8464    0.1505E+001
  -2.8389    0.1487E+001
  -2.8314    0.1470E+001
  -2.8239    0.1453E+001
  -2.8164    0.1437E+001
  -2.8089    0.1421E+001
  -2.8014    0.1406E+001
  -2.7939    0.1392E+001
  -2.7864    0.1378E+001
  -2.7789    0.1364E+001
  -2.7714    0.1351E+001
  -2.7639    0.1338E+001
  -2.7564    0.1325E+001
  -2.7489    0.1313E+001
  -2.7414    0.1301E+001
  -2.7339    0.1290E+001
  -2.7264    0.1278E+001
  -2.7189    0.1267E+001
  -2.7114    0.1257E+001
  -2.7039    0.1246E+001
  -2.6963    0.1236E+001
  -2.6888    0.1226E+001
  -2.6813    0.1216E+001
  -2.6738    0.1207E+001
  -2.6663    0.1198E+001
  -2.6588    0.1189E+001
  -2.6513    0.1180E+001
  -2.6438    0.1171E+001
  -2.6363    0.1163E+001
  -2.6288    0.1154E+001
  -2.6213    0.1146E+001
  -2.6138    0.1138E+001
  -2.6063    0.1131E+001
  -2.5988    0.1123E+001
  -2.5913    0.1115E+001
  -2.5838    0.1108E+001
  -2.5763    0.1101E+001
  -2.5688    0.1094E+001
  -2.5613    0.1087E+001
  -2.5538    0.1080E+001
  -2.5463    0.1074E+001
  -2.5388    0.1067E+001
  -2.5313    0.1061E+001
  -2.5238    0.1054E+001
  -2.5163    0.1048E+001
  -2.5088    0.1042E+001
  -2.5013    0.1036E+001
  -2.4937    0.1030E+001
  -2.4862    0.1024E+001
  -2.4787    0.1019E+001
  -2.4712    0.1013E+001
  -2.4637    0.1007E+001
  -2.4562    0.1002E+001
  -2.4487    0.9967E+000
  -2.4412    0.9914E+000
  -2.4337    0.9862E+000
  -2.4262    0.9812E+000
  -2.4187    0.9761E+000
  -2.4112    0.9712E+000
  -2.4037    0.9663E+000
  -2.3962    0.9615E+000
  -2.3887    0.9568E+000
  -2.3812    0.9521E+000
  -2.3737    0.9475E+000
  -2.3662    0.9430E+000
  -2.3587    0.9385E+000
  -2.3512    0.9341E+000
  -2.3437    0.9298E+000
  -2.3362    0.9255E+000
  -2.3287    0.9213E+000
  -2.3212    0.9171E+000
  -2.3137    0.9130E+000
  -2.3062    0.9089E+000
  -2.2986    0.9049E+000
  -2.2911    0.9010E+000
  -2.2836    0.8971E+000
  -2.2761    0.8932E+000
  -2.2686    0.8894E+000
  -2.2611    0.8857E+000
  -2.2536    0.8819E+000
  -2.2461    0.8783E+000
  -2.2386    0.8746E+000
  -2.2311    0.8711E+000
  -2.2236    0.8675E+000
  -2.2161    0.8640E+000
  -2.2086    0.8606E+000
  -2.2011    0.8572E+000
  -2.1936    0.8538E+000
  -2.1861    0.8505E+000
  -2.1786    0.8472E+000
  -2.1711    0.8439E+000
  -2.1636    0.8407E+000
  -2.1561    0.8375E+000
  -2.1486    0.8344E+000
  -2.1411    0.8312E+000
  -2.1336    0.8282E+000
  -2.1261    0.8251E+000
  -2.1186    0.8221E+000
  -2.1111    0.8191E+000
  -2.1036    0.8162E+000
  -2.0960    0.8132E+000
  -2.0885    0.8104E+000
  -2.0810    0.8075E+000
  -2.0735    0.8047E+000
  -2.0660    0.8019E+000
  -2.0585    0.7991E+000
  -2.0510    0.7963E+000
  -2.0435    0.7936E+000
  -2.0360    0.7909E+000
  -2.0285    0.7883E+000
  -2.0210    0.7856E+000
  -2.0135    0.7830E+000
  -2.0060    0.7804E+000
  -1.9985    0.7779E+000
  -1.9910    0.7753E+000
  -1.9835    0.7728E+000
  -1.9760    0.7703E+000
  -1.9685    0.7679E+000
  -1.9610    0.7654E+000
  -1.9535    0.7630E+000
  -1.9460    0.7606E+000
  -1.9385    0.7583E+000
  -1.9310    0.7559E+000
  -1.9235    0.7536E+000
  -1.9160    0.7513E+000
  -1.9085    0.7490E+000
  -1.9010    0.7467E+000
  -1.8934    0.7445E+000
  -1.8859    0.7422E+000
  -1.8784    0.7400E+000
  -1.8709    0.7378E+000
  -1.8634    0.7357E+000
  -1.8559    0.7335E+000
  -1.8484    0.7314E+000
  -1.8409    0.7293E+000
  -1.8334    0.7272E+000
  -1.8259    0.7251E+000
  -1.8184    0.7230E+000
  -1.8109    0.7210E+000
  -1.8034    0.7189E+000
  -1.7959    0.7169E+000
  -1.7884    0.7149E+000
  -1.7809    0.7130E+000
  -1.7734    0.7110E+000
  -1.7659    0.7090E+000
  -1.7584    0.7071E+000
  -1.7509    0.7052E+000
  -1.7434    0.7033E+000
  -1.7359    0.7014E+000
  -1.7284    0.6995E+000
  -1.7209    0.6977E+000
  -1.7134    0.6958E+000
  -1.7059    0.6940E+000
  -1.6983    0.6922E+000
  -1.6908    0.6904E+000
  -1.6833    0.6886E+000
  -1.6758    0.6869E+000
  -1.6683    0.6851E+000
  -1.6608    0.6833E+000
  -1.6533    0.6816E+000
  -1.6458    0.6799E+000
  -1.6383    0.6782E+000
  -1.6308    0.6765E+000
  -1.6233    0.6748E+000
  -1.6158    0.6731E+000
  -1.6083    0.6715E+000
  -1.6008    0.6698E+000
  -1.5933    0.6682E+000
  -1.5858    0.6666E+000
  -1.5783    0.6650E+000
  -1.5708    0.6634E+000
  -1.5633    0.6618E+000
  -1.5558    0.6602E+000
  -1.5483    0.6587E+000
  -1.5408    0.6571E+000
  -1.5333    0.6556E+000
  -1.5258    0.6540E+000
  -1.5183    0.6525E+000
  -1.5108    0.6510E+000
  -1.5033    0.6495E+000
  -1.4957    0.6480E+000
  -1.4882    0.6465E+000
  -1.4807    0.6450E+000
  -1.4732    0.6436E+000
  -1.4657    0.6421E+000
  -1.4582    0.6407E+000
  -1.4507    0.6393E+000
  -1.4432    0.6378E+000
  -1.4357    0.6364E+000
  -1.4282    0.6350E+000
  -1.4207    0.6336E+000
  -1.4132    0.6322E+000
  -1.4057    0.6309E+000
  -1.3982    0.6295E+000
  -1.3907    0.6281E+000
  -1.3832    0.6268E+000
  -1.3757    0.6254E+000
  -1.3682    0.6241E+000
  -1.3607    0.6228E+000
  -1.3532    0.6215E+000
  -1.3457    0.6202E+000
  -1.3382    0.6189E+000
  -1.3307    0.6176E+000
  -1.3232    0.6163E+000
  -1.3157    0.6150E+000
  -1.3082    0.6137E+000
  -1.3007    0.6125E+000
  -1.2931    0.6112E+000
  -1.2856    0.6100E+000
  -1.2781    0.6087E+000
  -1.2706    0.6075E+000
  -1.2631    0.6063E+000
  -1.2556    0.6051E+000
  -1.2481    0.6039E+000
  -1.2406    0.6027E+000
  -1.2331    0.6015E+000
  -1.2256    0.6003E+000
  -1.2181    0.5991E+000
  -1.2106    0.5979E+000
  -1.2031    0.5968E+000
  -1.1956    0.5956E+000
  -1.1881    0.5945E+000
  -1.1806    0.5933E+000
  -1.1731    0.5922E+000
  -1.1656    0.5910E+000
  -1.1581    0.5899E+000
  -1.1506    0.5888E+000
  -1.1431    0.5877E+000
  -1.1356    0.5866E+000
  -1.1281    0.5855E+000
  -1.1206    0.5844E+000
  -1.1131    0.5833E+000
  -1.1056    0.5822E+000
  -1.0980    0.5811E+000
  -1.0905    0.5801E+000
  -1.0830    0.5790E+000
  -1.0755    0.5779E+000
  -1.0680    0.5769E+000
  -1.0605    0.5758E+000
  -1.0530    0.5748E+000
  -1.0455    0.5738E+000
  -1.0380    0.5727E+000
  -1.0305    0.5717E+000
  -1.0230    0.5707E+000
  -1.0155    0.5697E+000
  -1.0080    0.5687E+000
  -1.0005    0.5677E+000
  -0.9930    0.5667E+000
  -0.9855    0.5657E+000
  -0.9780    0.5647E+000
  -0.9705    0.5637E+000
  -0.9630    0.5627E+000
  -0.9555    0.5618E+000
  -0.9480    0.5608E+000
  -0.9405    0.5598E+000
  -0.9330    0.5589E+000
  -0.9255    0.5579E+000
  -0.9180    0.5570E+000
  -0.9105    0.5560E+000
  -0.9030    0.5551E+000
  -0.8954    0.5542E+000
  -0.8879    0.5533E+000
  -0.8804    0.5523E+000
  -0.8729    0.5514E+000
  -0.8654    0.5505E+000
  -0.8579    0.5496E+000
  -0.8504    0.5487E+000
  -0.8429    0.5478E+000
  -0.8354    0.5469E+000
  -0.8279    0.5460E+000
  -0.8204    0.5451E+000
  -0.8129    0.5442E+000
  -0.8054    0.5434E+000
  -0.7979    0.5425E+000
  -0.7904    0.5416E+000
  -0.7829    0.5408E+000
  -0.7754    0.5399E+000
  -0.7679    0.5390E+000
  -0.7604    0.5382E+000
  -0.7529    0.5373E+000
  -0.7454    0.5365E+000
  -0.7379    0.5357E+000
  -0.7304    0.5348E+000
  -0.7229    0.5340E+000
  -0.7154    0.5332E+000
  -0.7079    0.5324E+000
  -0.7004    0.5315E+000
  -0.6928    0.5307E+000
  -0.6853    0.5299E+000
  -0.6778    0.5291E+000
  -0.6703    0.5283E+000
  -0.6628    0.5275E+000
  -0.6553    0.5267E+000
  -0.6478    0.5259E+000
  -0.6403    0.5251E+000
  -0.6328    0.5243E+000
  -0.6253    0.5236E+000
  -0.6178    0.5228E+000
  -0.6103    0.5220E+000
  -0.6028    0.5212E+000
  -0.5953    0.5205E+000
  -0.5878    0.5197E+000
  -0.5803    0.5189E+000
  -0.5728    0.5182E+000
  -0.5653    0.5174E+000
  -0.5578    0.5167E+000
  -0.5503    0.5159E+000
  -0.5428    0.5152E+000
  -0.5353    0.5145E+000
  -0.5278    0.5137E+000
  -0.5203    0.5130E+000
  -0.5128    0.5123E+000
  -0.5053    0.5115E+000
  -0.4977    0.5108E+000
  -0.4902    0.5101E+000
  -0.4827    0.5094E+000
  -0.4752    0.5087E+000
  -0.4677    0.5080E+000
  -0.4602    0.5073E+000
  -0.4527    0.5066E+000
  -0.4452    0.5059E+000
  -0.4377    0.5052E+000
  -0.4302    0.5045E+000
  -0.4227    0.5038E+000
  -0.4152    0.5031E+000
  -0.4077    0.5024E+000
  -0.4002    0.5017E+000
  -0.3927    0.5011E+000
  -0.3852    0.5004E+000
  -0.3777    0.4997E+000
  -0.3702    0.4990E+000
  -0.3627    0.4984E+000
  -0.3552    0.4977E+000
  -0.3477    0.4970E+000
  -0.3402    0.4964E+000
  -0.3327    0.4957E+000
  -0.3252    0.4951E+000
  -0.3177    0.4944E+000
  -0.3102    0.4938E+000
  -0.3027    0.4931E+000
  -0.2951    0.4925E+000
  -0.2876    0.4919E+000
  -0.2801    0.4912E+000
  -0.2726    0.4906E+000
  -0.2651    0.4900E+000
  -0.2576    0.4893E+000
  -0.2501    0.4887E+000
  -0.2426    0.4881E+000
  -0.2351    0.4875E+000
  -0.2276    0.4869E+000
  -0.2201    0.4862E+000
  -0.2126    0.4856E+000
  -0.2051    0.4850E+000
  -0.1976    0.4844E+000
  -0.1901    0.4838E+000
  -0.1826    0.4832E+000
  -0.1751    0.4826E+000
  -0.1676    0.4820E+000
  -0.1601    0.4814E+000
  -0.1526    0.4808E+000
  -0.1451    0.4802E+000
  -0.1376    0.4796E+000
  -0.1301    0.4791E+000
  -0.1226    0.4785E+000
  -0.1151    0.4779E+000
  -0.1076    0.4773E+000
  -0.1001    0.4768E+000
  -0.0925    0.4762E+000
  -0.0850    0.4756E+000
  -0.0775    0.4750E+000
  -0.0700    0.4745E+000
  -0.0625    0.4739E+000
  -0.0550    0.4734E+000
  -0.0475    0.4728E+000
  -0.0400    0.4722E+000
  -0.0325    0.4717E+000
  -0.0250    0.4711E+000
  -0.0175    0.4706E+000
  -0.0100    0.4700E+000
  -0.0025    0.4695E+000
   0.0050    0.4689E+000
   0.0125    0.4684E+000
   0.0200    0.4679E+000
   0.0275    0.4673E+000
   0.0350    0.4668E+000
   0.0425    0.4663E+000
   0.0500    0.4657E+000
   0.0575    0.4652E+000
   0.0650    0.4647E+000
   0.0725    0.4642E+000
   0.0800    0.4636E+000
   0.0875    0.4631E+000
   0.0950    0.4626E+000
   0.1026    0.4621E+000
   0.1101    0.4616E+000
   0.1176    0.4611E+000
   0.1251    0.4606E+000
   0.1326    0.4601E+000
   0.1401    0.4595E+000
   0.1476    0.4590E+000
   0.1551    0.4585E+000
   0.1626    0.4580E+000
   0.1701    0.4575E+000
   0.1776    0.4571E+000
   0.1851    0.4566E+000
   0.1926    0.4561E+000
   0.2001    0.4556E+000
   0.2076    0.4551E+000
   0.2151    0.4546E+000
   0.2226    0.4541E+000
   0.2301    0.4536E+000
   0.2376    0.4532E+000
   0.2451    0.4527E+000
   0.2526    0.4522E+000
   0.2601    0.4517E+000
   0.2676    0.4513E+000
   0.2751    0.4508E+000
   0.2826    0.4503E+000
   0.2901    0.4499E+000
   0.2976    0.4494E+000
   0.3052    0.4489E+000
   0.3127    0.4485E+000
   0.3202    0.4480E+000
   0.3277    0.4476E+000
   0.3352    0.4471E+000
   0.3427    0.4467E+000
   0.3502    0.4462E+000
   0.3577    0.4457E+000
   0.3652    0.4453E+000
   0.3727    0.4449E+000
   0.3802    0.4444E+000
   0.3877    0.4440E+000
   0.3952    0.4435E+000
   0.4027    0.4431E+000
   0.4102    0.4426E+000
   0.4177    0.4422E+000
   0.4252    0.4418E+000
   0.4327    0.4413E+000
   0.4402    0.4409E+000
   0.4477    0.4405E+000
   0.4552    0.4401E+000
   0.4627    0.4396E+000
   0.4702    0.4392E+000
   0.4777    0.4388E+000
   0.4852    0.4384E+000
   0.4927    0.4379E+000
   0.5003    0.4375E+000
   0.5078    0.4371E+000
   0.5153    0.4367E+000
   0.5228    0.4363E+000
   0.5303    0.4359E+000
   0.5378    0.4355E+000
   0.5453    0.4350E+000
   0.5528    0.4346E+000
   0.5603    0.4342E+000
   0.5678    0.4338E+000
   0.5753    0.4334E+000
   0.5828    0.4330E+000
   0.5903    0.4326E+000
   0.5978    0.4322E+000
   0.6053    0.4318E+000
   0.6128    0.4314E+000
   0.6203    0.4311E+000
   0.6278    0.4307E+000
   0.6353    0.4303E+000
   0.6428    0.4299E+000
   0.6503    0.4295E+000
   0.6578    0.4291E+000
   0.6653    0.4287E+000
   0.6728    0.4283E+000
   0.6803    0.4280E+000
   0.6878    0.4276E+000
   0.6953    0.4272E+000
   0.7029    0.4268E+000
   0.7104    0.4265E+000
   0.7179    0.4261E+000
   0.7254    0.4257E+000
   0.7329    0.4253E+000
   0.7404    0.4250E+000
   0.7479    0.4246E+000
   0.7554    0.4242E+000
   0.7629    0.4239E+000
   0.7704    0.4235E+000
   0.7779    0.4231E+000
   0.7854    0.4228E+000
   0.7929    0.4224E+000
   0.8004    0.4221E+000
   0.8079    0.4217E+000
   0.8154    0.4214E+000
   0.8229    0.4210E+000
   0.8304    0.4207E+000
   0.8379    0.4203E+000
   0.8454    0.4200E+000
   0.8529    0.4196E+000
   0.8604    0.4193E+000
   0.8679    0.4189E+000
   0.8754    0.4186E+000
   0.8829    0.4182E+000
   0.8904    0.4179E+000
   0.8979    0.4175E+000
   0.9055    0.4172E+000
   0.9130    0.4169E+000
   0.9205    0.4165E+000
   0.9280    0.4162E+000
   0.9355    0.4159E+000
   0.9430    0.4155E+000
   0.9505    0.4152E+000
   0.9580    0.4149E+000
   0.9655    0.4146E+000
   0.9730    0.4142E+000
   0.9805    0.4139E+000
   0.9880    0.4136E+000
   0.9955    0.4133E+000
   1.0030    0.4129E+000
   1.0105    0.4126E+000
   1.0180    0.4123E+000
   1.0255    0.4120E+000
   1.0330    0.4117E+000
   1.0405    0.4113E+000
   1.0480    0.4110E+000
   1.0555    0.4107E+000
   1.0630    0.4104E+000
   1.0705    0.4101E+000
   1.0780    0.4098E+000
   1.0855    0.4095E+000
   1.0930    0.4092E+000
   1.1006    0.4089E+000
   1.1081    0.4086E+000
   1.1156    0.4083E+000
   1.1231    0.4080E+000
   1.1306    0.4077E+000
   1.1381    0.4074E+000
   1.1456    0.4071E+000
   1.1531    0.4068E+000
   1.1606    0.4065E+000
   1.1681    0.4062E+000
   1.1756    0.4059E+000
   1.1831    0.4056E+000
   1.1906    0.4053E+000
   1.1981    0.4050E+000
   1.2056    0.4047E+000
   1.2131    0.4044E+000
   1.2206    0.4042E+000
   1.2281    0.4039E+000
   1.2356    0.4036E+000
   1.2431    0.4033E+000
   1.2506    0.4030E+000
   1.2581    0.4028E+000
   1.2656    0.4025E+000
   1.2731    0.4022E+000
   1.2806    0.4019E+000
   1.2881    0.4016E+000
   1.2956    0.4014E+000
   1.3032    0.4011E+000
   1.3107    0.4008E+000
   1.3182    0.4006E+000
   1.3257    0.4003E+000
   1.3332    0.4000E+000
   1.3407    0.3998E+000
   1.3482    0.3995E+000
   1.3557    0.3992E+000
   1.3632    0.3990E+000
   1.3707    0.3987E+000
   1.3782    0.3984E+000
   1.3857    0.3982E+000
   1.3932    0.3979E+000
   1.4007    0.3977E+000
   1.4082    0.3974E+000
   1.4157    0.3972E+000
   1.4232    0.3969E+000
   1.4307    0.3967E+000
   1.4382    0.3964E+000
   1.4457    0.3961E+000
   1.4532    0.3959E+000
   1.4607    0.3957E+000
   1.4682    0.3954E+000
   1.4757    0.3952E+000
   1.4832    0.3949E+000
   1.4907    0.3947E+000
   1.4982    0.3944E+000
   1.5058    0.3942E+000
   1.5133    0.3939E+000
   1.5208    0.3937E+000
   1.5283    0.3935E+000
   1.5358    0.3932E+000
   1.5433    0.3930E+000
   1.5508    0.3928E+000
   1.5583    0.3925E+000
   1.5658    0.3923E+000
   1.5733    0.3921E+000
   1.5808    0.3918E+000
   1.5883    0.3916E+000
   1.5958    0.3914E+000
   1.6033    0.3911E+000
   1.6108    0.3909E+000
   1.6183    0.3907E+000
   1.6258    0.3905E+000
   1.6333    0.3902E+000
   1.6408    0.3900E+000
   1.6483    0.3898E+000
   1.6558    0.3896E+000
   1.6633    0.3894E+000
   1.6708    0.3891E+000
   1.6783    0.3889E+000
   1.6858    0.3887E+000
   1.6933    0.3885E+000
   1.7009    0.3883E+000
   1.7084    0.3881E+000
   1.7159    0.3879E+000
   1.7234    0.3877E+000
   1.7309    0.3874E+000
   1.7384    0.3872E+000
   1.7459    0.3870E+000
   1.7534    0.3868E+000
   1.7609    0.3866E+000
   1.7684    0.3864E+000
   1.7759    0.3862E+000
   1.7834    0.3860E+000
   1.7909    0.3858E+000
   1.7984    0.3856E+000
   1.8059    0.3854E+000
   1.8134    0.3852E+000
   1.8209    0.3850E+000
   1.8284    0.3848E+000
   1.8359    0.3846E+000
   1.8434    0.3844E+000
   1.8509    0.3842E+000
   1.8584    0.3841E+000
   1.8659    0.3839E+000
   1.8734    0.3837E+000
   1.8809    0.3835E+000
   1.8884    0.3833E+000
   1.8959    0.3831E+000
   1.9035    0.3829E+000
   1.9110    0.3827E+000
   1.9185    0.3826E+000
   1.9260    0.3824E+000
   1.9335    0.3822E+000
   1.9410    0.3820E+000
   1.9485    0.3818E+000
   1.9560    0.3817E+000
   1.9635    0.3815E+000
   1.9710    0.3813E+000
   1.9785    0.3811E+000
   1.9860    0.3810E+000
   1.9935    0.3808E+000
   2.0010    0.3806E+000
   2.0085    0.3805E+000
   2.0160    0.3803E+000
   2.0235    0.3801E+000
   2.0310    0.3799E+000
   2.0385    0.3798E+000
   2.0460    0.3796E+000
   2.0535    0.3795E+000
   2.0610    0.3793E+000
   2.0685    0.3791E+000
   2.0760    0.3790E+000
   2.0835    0.3788E+000
   2.0910    0.3787E+000
   2.0985    0.3785E+000
   2.1061    0.3783E+000
   2.1136    0.3782E+000
   2.1211    0.3780E+000
   2.1286    0.3779E+000
   2.1361    0.3777E+000
   2.1436    0.3776E+000
   2.1511    0.3774E+000
   2.1586    0.3773E+000
   2.1661    0.3771E+000
   2.1736    0.3770E+000
   2.1811    0.3768E+000
   2.1886    0.3767E+000
   2.1961    0.3765E+000
   2.2036    0.3764E+000
   2.2111    0.3762E+000
   2.2186    0.3761E+000
   2.2261    0.3760E+000
   2.2336    0.3758E+000
   2.2411    0.3757E+000
   2.2486    0.3756E+000
   2.2561    0.3754E+000
   2.2636    0.3753E+000
   2.2711    0.3751E+000
   2.2786    0.3750E+000
   2.2861    0.3749E+000
   2.2936    0.3748E+000
   2.3012    0.3746E+000
   2.3087    0.3745E+000
   2.3162    0.3744E+000
   2.3237    0.3742E+000
   2.3312    0.3741E+000
   2.3387    0.3740E+000
   2.3462    0.3739E+000
   2.3537    0.3737E+000
   2.3612    0.3736E+000
   2.3687    0.3735E+000
   2.3762    0.3734E+000
   2.3837    0.3733E+000
   2.3912    0.3731E+000
   2.3987    0.3730E+000
   2.4062    0.3729E+000
   2.4137    0.3728E+000
   2.4212    0.3727E+000
   2.4287    0.3726E+000
   2.4362    0.3725E+000
   2.4437    0.3724E+000
   2.4512    0.3722E+000
   2.4587    0.3721E+000
   2.4662    0.3720E+000
   2.4737    0.3719E+000
   2.4812    0.3718E+000
   2.4887    0.3717E+000
   2.4962    0.3716E+000
   2.5038    0.3715E+000
   2.5113    0.3714E+000
   2.5188    0.3713E+000
   2.5263    0.3712E+000
   2.5338    0.3711E+000
   2.5413    0.3710E+000
   2.5488    0.3709E+000
   2.5563    0.3708E+000
   2.5638    0.3707E+000
   2.5713    0.3706E+000
   2.5788    0.3706E+000
   2.5863    0.3705E+000
   2.5938    0.3704E+000
   2.6013    0.3703E+000
   2.6088    0.3702E+000
   2.6163    0.3701E+000
   2.6238    0.3700E+000
   2.6313    0.3699E+000
   2.6388    0.3699E+000
   2.6463    0.3698E+000
   2.6538    0.3697E+000
   2.6613    0.3696E+000
   2.6688    0.3695E+000
   2.6763    0.3695E+000
   2.6838    0.3694E+000
   2.6913    0.3693E+000
   2.6988    0.3692E+000
   2.7064    0.3692E+000
   2.7139    0.3691E+000
   2.7214    0.3690E+000
   2.7289    0.3690E+000
   2.7364    0.3689E+000
   2.7439    0.3688E+000
   2.7514    0.3688E+000
   2.7589    0.3687E+000
   2.7664    0.3686E+000
   2.7739    0.3686E+000
   2.7814    0.3685E+000
   2.7889    0.3684E+000
   2.7964    0.3684E+000
   2.8039    0.3683E+000
   2.8114    0.3683E+000
   2.8189    0.3682E+000
   2.8264    0.3682E+000
   2.8339    0.3681E+000
   2.8414    0.3681E+000
   2.8489    0.3680E+000
   2.8564    0.3680E+000
   2.8639    0.3679E+000
   2.8714    0.3679E+000
   2.8789    0.3678E+000
   2.8864    0.3678E+000
   2.8939    0.3677E+000
   2.9015    0.3677E+000
   2.9090    0.3676E+000
   2.9165    0.3676E+000
   2.9240    0.3676E+000
   2.9315    0.3675E+000
   2.9390    0.3675E+000
   2.9465    0.3675E+000
   2.9540    0.3674E+000
   2.9615    0.3674E+000
   2.9690    0.3674E+000
   2.9765    0.3673E+000
   2.9840    0.3673E+000
   2.9915    0.3673E+000
   2.9990    0.3672E+000
   3.0065    0.3672E+000
   3.0140    0.3672E+000
   3.0215    0.3672E+000
   3.0290    0.3671E+000
   3.0365    0.3671E+000
   3.0440    0.3671E+000
   3.0515    0.3671E+000
   3.0590    0.3671E+000
   3.0665    0.3670E+000
   3.0740    0.3670E+000
   3.0815    0.3670E+000
   3.0890    0.3670E+000
   3.0965    0.3670E+000
   3.1041    0.3670E+000
   3.1116    0.3670E+000
   3.1191    0.3670E+000
   3.1266    0.3670E+000
   3.1341    0.3669E+000
   3.1416    0.3669E+000
   3.1491    0.3669E+000
   3.1566    0.3669E+000
   3.1641    0.3669E+000
   3.1716    0.3669E+000
   3.1791    0.3669E+000
   3.1866    0.3669E+000
   3.1941    0.3670E+000
   3.2016    0.3670E+000
   3.2091    0.3670E+000
   3.2166    0.3670E+000
   3.2241    0.3670E+000
   3.2316    0.3670E+000
   3.2391    0.3670E+000
   3.2466    0.3670E+000
   3.2541    0.3670E+000
   3.2616    0.3671E+000
   3.2691    0.3671E+000
   3.2766    0.3671E+000
   3.2841    0.3671E+000
   3.2916    0.3671E+000
   3.2991    0.3672E+000
   3.3067    0.3672E+000
   3.3142    0.3672E+000
   3.3217    0.3672E+000
   3.3292    0.3673E+000
   3.3367    0.3673E+000
   3.3442    0.3673E+000
   3.3517    0.3674E+000
   3.3592    0.3674E+000
   3.3667    0.3674E+000
   3.3742    0.3675E+000
   3.3817    0.3675E+000
   3.3892    0.3676E+000
   3.3967    0.3676E+000
   3.4042    0.3676E+000
   3.4117    0.3677E+000
   3.4192    0.3677E+000
   3.4267    0.3678E+000
   3.4342    0.3678E+000
   3.4417    0.3679E+000
   3.4492    0.3679E+000
   3.4567    0.3680E+000
   3.4642    0.3680E+000
   3.4717    0.3681E+000
   3.4792    0.3682E+000
   3.4867    0.3682E+000
   3.4942    0.3683E+000
   3.5018    0.3683E+000
   3.5093    0.3684E+000
   3.5168    0.3685E+000
   3.5243    0.3685E+000
   3.5318    0.3686E+000
   3.5393    0.3687E+000
   3.5468    0.3688E+000
   3.5543    0.3688E+000
   3.5618    0.3689E+000
   3.5693    0.3690E+000
   3.5768    0.3691E+000
   3.5843    0.3691E+000
   3.5918    0.3692E+000
   3.5993    0.3693E+000
   3.6068    0.3694E+000
   3.6143    0.3695E+000
   3.6218    0.3696E+000
   3.6293    0.3697E+000
   3.6368    0.3698E+000
   3.6443    0.3698E+000
   3.6518    0.3699E+000
   3.6593    0.3700E+000
   3.6668    0.3701E+000
   3.6743    0.3702E+000
   3.6818    0.3703E+000
   3.6893    0.3704E+000
   3.6968    0.3706E+000
   3.7044    0.3707E+000
   3.7119    0.3708E+000
   3.7194    0.3709E+000
   3.7269    0.3710E+000
   3.7344    0.3711E+000
   3.7419    0.3712E+000
   3.7494    0.3713E+000
   3.7569    0.3715E+000
   3.7644    0.3716E+000
   3.7719    0.3717E+000
   3.7794    0.3718E+000
   3.7869    0.3720E+000
   3.7944    0.3721E+000
   3.8019    0.3722E+000
   3.8094    0.3724E+000
   3.8169    0.3725E+000
   3.8244    0.3726E+000
   3.8319    0.3728E+000
   3.8394    0.3729E+000
   3.8469    0.3731E+000
   3.8544    0.3732E+000
   3.8619    0.3733E+000
   3.8694    0.3735E+000
   3.8769    0.3736E+000
   3.8844    0.3738E+000
   3.8919    0.3740E+000
   3.8994    0.3741E+000
   3.9070    0.3743E+000
   3.9145    0.3744E+000
   3.9220    0.3746E+000
   3.9295    0.3748E+000
   3.9370    0.3749E+000
   3.9445    0.3751E+000
   3.9520    0.3753E+000
   3.9595    0.3754E+000
   3.9670    0.3756E+000
   3.9745    0.3758E+000
   3.9820    0.3760E+000
   3.9895    0.3762E+000
   3.9970    0.3763E+000
   4.0045    0.3765E+000
   4.0120    0.3767E+000
   4.0195    0.3769E+000
   4.0270    0.3771E+000
   4.0345    0.3773E+000
   4.0420    0.3775E+000
   4.0495    0.3777E+000
   4.0570    0.3779E+000
   4.0645    0.3781E+000
   4.0720    0.3783E+000
   4.0795    0.3785E+000
   4.0870    0.3787E+000
   4.0945    0.3790E+000
   4.1021    0.3792E+000
   4.1096    0.3794E+000
   4.1171    0.3796E+000
   4.1246    0.3798E+000
   4.1321    0.3801E+000
   4.1396    0.3803E+000
   4.1471    0.3805E+000
   4.1546    0.3808E+000
   4.1621    0.3810E+000
   4.1696    0.3813E+000
   4.1771    0.3815E+000
   4.1846    0.3817E+000
   4.1921    0.3820E+000
   4.1996    0.3822E+000
   4.2071    0.3825E+000
   4.2146    0.3828E+000
   4.2221    0.3830E+000
   4.2296    0.3833E+000
   4.2371    0.3835E+000
   4.2446    0.3838E+000
   4.2521    0.3841E+000
   4.2596    0.3844E+000
   4.2671    0.3846E+000
   4.2746    0.3849E+000
   4.2821    0.3852E+000
   4.2896    0.3855E+000
   4.2971    0.3858E+000
   4.3047    0.3861E+000
   4.3122    0.3864E+000
   4.3197    0.3867E+000
   4.3272    0.3870E+000
   4.3347    0.3873E+000
   4.3422    0.3876E+000
   4.3497    0.3879E+000
   4.3572    0.3882E+000
   4.3647    0.3885E+000
   4.3722    0.3888E+000
   4.3797    0.3892E+000
   4.3872    0.3895E+000
   4.3947    0.3898E+000
   4.4022    0.3902E+000
   4.4097    0.3905E+000
   4.4172    0.3908E+000
   4.4247    0.3912E+000
   4.4322    0.3915E+000
   4.4397    0.3919E+000
   4.4472    0.3922E+000
   4.4547    0.3926E+000
   4.4622    0.3930E+000
   4.4697    0.3933E+000
   4.4772    0.3937E+000
   4.4847    0.3941E+000
   4.4922    0.3944E+000
   4.4997    0.3948E+000
   4.5073    0.3952E+000
   4.5148    0.3956E+000
   4.5223    0.3960E+000
   4.5298    0.3964E+000
   4.5373    0.3968E+000
   4.5448    0.3972E+000
   4.5523    0.3976E+000
   4.5598    0.3980E+000
   4.5673    0.3984E+000
   4.5748    0.3989E+000
   4.5823    0.3993E+000
   4.5898    0.3997E+000
   4.5973    0.4001E+000
   4.6048    0.4006E+000
   4.6123    0.4010E+000
   4.6198    0.4015E+000
   4.6273    0.4019E+000
   4.6348    0.4024E+000
   4.6423    0.4028E+000
   4.6498    0.4033E+000
   4.6573    0.4038E+000
   4.6648    0.4043E+000
   4.6723    0.4047E+000
   4.6798    0.4052E+000
   4.6873    0.4057E+000
   4.6948    0.4062E+000
   4.7024    0.4067E+000
   4.7099    0.4072E+000
   4.7174    0.4077E+000
   4.7249    0.4082E+000
   4.7324    0.4088E+000
   4.7399    0.4093E+000
   4.7474    0.4098E+000
   4.7549    0.4104E+000
   4.7624    0.4109E+000
   4.7699    0.4115E+000
   4.7774    0.4120E+000
   4.7849    0.4126E+000
   4.7924    0.4131E+000
   4.7999    0.4137E+000
   4.8074    0.4143E+000
   4.8149    0.4149E+000
   4.8224    0.4155E+000
   4.8299    0.4161E+000
   4.8374    0.4167E+000
   4.8449    0.4173E+000
   4.8524    0.4179E+000
   4.8599    0.4185E+000
   4.8674    0.4191E+000
   4.8749    0.4198E+000
   4.8824    0.4204E+000
   4.8899    0.4210E+000
   4.8974    0.4217E+000
   4.9050    0.4224E+000
   4.9125    0.4230E+000
   4.9200    0.4237E+000
   4.9275    0.4244E+000
   4.9350    0.4251E+000
   4.9425    0.4258E+000
   4.9500    0.4265E+000
   4.9575    0.4272E+000
   4.9650    0.4279E+000
   4.9725    0.4286E+000
   4.9800    0.4294E+000
   4.9875    0.4301E+000
   4.9950    0.4309E+000
   5.0025    0.4316E+000
   5.0100    0.4324E+000
   5.0175    0.4332E+000
   5.0250    0.4340E+000
   5.0325    0.4348E+000
   5.0400    0.4356E+000
   5.0475    0.4364E+000
   5.0550    0.4372E+000
   5.0625    0.4380E+000
   5.0700    0.4389E+000
   5.0775    0.4397E+000
   5.0850    0.4406E+000
   5.0925    0.4414E+000
   5.1001    0.4423E+000
   5.1076    0.4432E+000
   5.1151    0.4441E+000
   5.1226    0.4450E+000
   5.1301    0.4459E+000
   5.1376    0.4469E+000
   5.1451    0.4478E+000
   5.1526    0.4488E+000
   5.1601    0.4497E+000
   5.1676    0.4507E+000
   5.1751    0.4517E+000
   5.1826    0.4527E+000
   5.1901    0.4537E+000
   5.1976    0.4547E+000
   5.2051    0.4557E+000
   5.2126    0.4568E+000
   5.2201    0.4579E+000
   5.2276    0.4589E+000
   5.2351    0.4600E+000
   5.2426    0.4611E+000
   5.2501    0.4622E+000
   5.2576    0.4634E+000
   5.2651    0.4645E+000
   5.2726    0.4656E+000
   5.2801    0.4668E+000
   5.2876    0.4680E+000
   5.2951    0.4692E+000
   5.3027    0.4704E+000
   5.3102    0.4717E+000
   5.3177    0.4729E+000
   5.3252    0.4742E+000
   5.3327    0.4754E+000
   5.3402    0.4767E+000
   5.3477    0.4781E+000
   5.3552    0.4794E+000
   5.3627    0.4807E+000
   5.3702    0.4821E+000
   5.3777    0.4835E+000
   5.3852    0.4849E+000
   5.3927    0.4863E+000
   5.4002    0.4878E+000
   5.4077    0.4892E+000
   5.4152    0.4907E+000
   5.4227    0.4922E+000
   5.4302    0.4937E+000
   5.4377    0.4953E+000
   5.4452    0.4969E+000
   5.4527    0.4985E+000
   5.4602    0.5001E+000
   5.4677    0.5017E+000
   5.4752    0.5034E+000
   5.4827    0.5051E+000
   5.4902    0.5068E+000
   5.4977    0.5085E+000
   5.5053    0.5103E+000
   5.5128    0.5121E+000
   5.5203    0.5139E+000
   5.5278    0.5158E+000
   5.5353    0.5176E+000
   5.5428    0.5195E+000
   5.5503    0.5215E+000
   5.5578    0.5235E+000
   5.5653    0.5255E+000
   5.5728    0.5275E+000
   5.5803    0.5296E+000
   5.5878    0.5317E+000
   5.5953    0.5338E+000
   5.6028    0.5360E+000
   5.6103    0.5382E+000
   5.6178    0.5404E+000
   5.6253    0.5427E+000
   5.6328    0.5451E+000
   5.6403    0.5474E+000
   5.6478    0.5498E+000
   5.6553    0.5523E+000
   5.6628    0.5548E+000
   5.6703    0.5573E+000
   5.6778    0.5599E+000
   5.6853    0.5626E+000
   5.6928    0.5653E+000
   5.7004    0.5680E+000
   5.7079    0.5708E+000
   5.7154    0.5736E+000
   5.7229    0.5765E+000
   5.7304    0.5795E+000
   5.7379    0.5825E+000
   5.7454    0.5856E+000
   5.7529    0.5888E+000
   5.7604    0.5920E+000
   5.7679    0.5953E+000
   5.7754    0.5986E+000
   5.7829    0.6020E+000
   5.7904    0.6055E+000
   5.7979    0.6091E+000
   5.8054    0.6128E+000
   5.8129    0.6165E+000
   5.8204    0.6203E+000
   5.8279    0.6242E+000
   5.8354    0.6283E+000
   5.8429    0.6324E+000
   5.8504    0.6366E+000
   5.8579    0.6409E+000
   5.8654    0.6453E+000
   5.8729    0.6498E+000
   5.8804    0.6545E+000
   5.8879    0.6592E+000
   5.8954    0.6641E+000
   5.9030    0.6692E+000
   5.9105    0.6743E+000
   5.9180    0.6797E+000
   5.9255    0.6851E+000
   5.9330    0.6907E+000
   5.9405    0.6965E+000
   5.9480    0.7025E+000
   5.9555    0.7087E+000
   5.9630    0.7150E+000
   5.9705    0.7215E+000
   5.9780    0.7283E+000
   5.9855    0.7353E+000
   5.9930    0.7425E+000
   6.0005    0.7500E+000
   6.0080    0.7577E+000
   6.0155    0.7657E+000
   6.0230    0.7741E+000
   6.0305    0.7827E+000
   6.0380    0.7917E+000
   6.0455    0.8010E+000
   6.0530    0.8107E+000
   6.0605    0.8209E+000
   6.0680    0.8314E+000
   6.0755    0.8425E+000
   6.0830    0.8540E+000
   6.0905    0.8661E+000
   6.0980    0.8788E+000
   6.1056    0.8922E+000
   6.1131    0.9062E+000
   6.1206    0.9211E+000
   6.1281    0.9367E+000
   6.1356    0.9533E+000
   6.1431    0.9710E+000
   6.1506    0.9897E+000
   6.1581    0.1010E+001
   6.1656    0.1031E+001
   6.1731    0.1054E+001
   6.1806    0.1079E+001
   6.1881    0.1106E+001
   6.1956    0.1136E+001
   6.2031    0.1169E+001
   6.2106    0.1205E+001
   6.2181    0.1246E+001
   6.2256    0.1292E+001
   6.2331    0.1344E+001
   6.2406    0.1405E+001
   6.2481    0.1475E+001
   6.2556    0.1556E+001
   6.2631    0.1648E+001
   6.2706    0.1751E+001
   6.2781    0.1863E+001
   6.2856    0.1977E+001
   6.2931    0.2088E+001
   6.3007    0.2184E+001
   6.3082    0.2253E+001
   6.3157    0.2283E+001
   6.3232    0.2264E+001
   6.3307    0.2188E+001
   6.3382    0.2056E+001
   6.3457    0.1873E+001
   6.3532    0.1650E+001
   6.3607    0.1403E+001
   6.3682    0.1151E+001
   6.3757    0.9090E+000
   6.3832    0.6904E+000
   6.3907    0.5040E+000
   6.3982    0.3533E+000
   6.4057    0.2377E+000
   6.4132    0.1534E+000
   6.4207    0.9494E-001
   6.4282    0.5632E-001
   6.4357    0.3202E-001
   6.4432    0.1744E-001
   6.4507    0.9094E-002
   6.4582    0.4543E-002
   6.4657    0.2173E-002
   6.4732    0.9946E-003
   6.4807    0.4359E-003
   6.4882    0.1828E-003
   6.4957    0.7339E-004
   6.5033    0.2819E-004
   6.5108    0.1036E-004
   6.5183    0.3643E-005
   6.5258    0.1225E-005
   6.5333    0.3944E-006
   6.5408    0.1214E-006
   6.5483    0.3576E-007
   6.5558    0.1007E-007
   6.5633    0.2714E-008
   6.5708    0.6993E-009
   6.5783    0.1724E-009
   6.5858    0.4063E-010
   6.5933    0.9160E-011
   6.6008    0.1975E-011
   6.6083    0.4072E-012
   6.6158    0.8030E-013
   6.6233    0.1514E-013
   6.6308    0.2730E-014
   6.6383    0.4708E-015
   6.6458    0.7763E-016
   6.6533    0.1224E-016
   6.6608    0.1845E-017
   6.6683    0.2660E-018
   6.6758    0.3667E-019
   6.6833    0.4834E-020
   6.6908    0.6092E-021
   6.6983    0.7342E-022
   6.7059    0.8460E-023
   6.7134    0.9321E-024
   6.7209    0.9819E-025
   6.7284    0.9890E-026
   6.7359    0.9524E-027
   6.7434    0.8770E-028
   6.7509    0.7721E-029
   6.7584    0.6499E-030
   6.7659    0.5230E-031
   6.7734    0.4025E-032
   6.7809    0.2961E-033
   6.7884    0.2083E-034
   6.7959    0.1401E-035
   6.8034    0.9005E-037
   6.8109    0.5535E-038
   6.8184    0.3253E-039
   6.8259    0.1828E-040
   6.8334    0.9820E-042
   6.8409    0.5044E-043
   6.8484    0.2477E-044
   6.8559    0.1163E-045
   6.8634    0.5219E-047
   6.8709    0.2239E-048
   6.8784    0.9187E-050
   6.8859    0.3603E-051
   6.8934    0.1351E-052
   6.9010    0.4844E-054
   6.9085    0.1660E-055
   6.9160    0.5440E-057
   6.9235    0.1704E-058
   6.9310    0.5104E-060
   6.9385    0.1461E-061
   6.9460    0.4000E-063
   6.9535    0.1047E-064
   6.9610    0.2619E-066
   6.9685    0.6264E-068
   6.9760    0.1432E-069
   6.9835    0.3131E-071
   6.9910    0.6544E-073
   6.9985    0.1308E-074
   7.0060    0.2498E-076
   7.0135    0.4561E-078
   7.0210    0.7962E-080
   7.0285    0.1329E-081
   7.0360    0.2120E-083
   7.0435    0.3234E-085
   7.0510    0.4717E-087
   7.0585    0.6576E-089
   7.0660    0.8765E-091
   7.0735    0.1117E-092
   7.0810    0.1360E-094
   7.0885    0.1584E-096
   7.0960    0.1764E-098
   7.1036    0.1877E-100
   7.1111    0.1910E-102
   7.1186    0.1858E-104
   7.1261    0.1727E-106
   7.1336    0.1536E-108
   7.1411    0.1305E-110
   7.1486    0.1060E-112
   7.1561    0.8236E-115
   7.1636    0.6116E-117
   7.1711    0.4341E-119
   7.1786    0.2946E-121
   7.1861    0.1911E-123
   7.1936    0.1185E-125
   7.2011    0.7029E-128
   7.2086    0.3984E-130
   7.2161    0.2159E-132
   7.2236    0.1118E-134
   7.2311    0.5538E-137
   7.2386    0.2622E-139
   7.2461    0.1187E-141
   7.2536    0.5135E-144
   7.2611    0.2124E-146
   7.2686    0.8399E-149
   7.2761    0.3175E-151
   7.2836    0.1147E-153
   7.2911    0.3964E-156
   7.2986    0.1309E-158
   7.3062    0.4133E-161
   7.3137    0.1248E-163
   7.3212    0.3600E-166
   7.3287    0.9931E-169
   7.3362    0.2619E-171
   7.3437    0.6602E-174
   7.3512    0.1591E-176
   7.3587    0.3666E-179
   7.3662    0.8074E-182
   7.3737    0.1700E-184
   7.3812    0.3422E-187
   7.3887    0.6585E-190
   7.3962    0.1211E-192
   7.4037    0.2130E-195
   7.4112    0.3581E-198
   7.4187    0.5755E-201
   7.4262    0.8843E-204
   7.4337    0.1299E-206
   7.4412    0.1824E-209
   7.4487    0.2448E-212
   7.4562    0.3141E-215
   7.4637    0.3853E-218
   7.4712    0.4519E-221
   7.4787    0.5066E-224
   7.4862    0.5429E-227
   7.4937    0.5562E-230
   7.5013    0.5448E-233
   7.5088    0.5101E-236
   7.5163    0.4566E-239
   7.5238    0.3907E-242
   7.5313    0.3196E-245
   7.5388    0.2499E-248
   7.5463    0.1868E-251
   7.5538    0.1335E-254
   7.5613    0.9122E-258
   7.5688    0.5958E-261
   7.5763    0.3720E-264
   7.5838    0.2220E-267
   7.5913    0.1267E-270
   7.5988    0.6910E-274
   7.6063    0.3603E-277
   7.6138    0.1796E-280
   7.6213    0.8560E-284
   7.6288    0.3899E-287
   7.6363    0.1698E-290
   7.6438    0.7070E-294
   7.6513    0.2814E-297
   7.6588    0.1071E-300
   7.6663    0.3888E-304
   7.6738    0.0000E+000
   7.6813    0.0000E+000
   7.6888    0.0000E+000
   7.6963    0.0000E+000
   7.7039    0.0000E+000
   7.7114    0.0000E+000
   7.7189    0.0000E+000
   7.7264    0.0000E+000
   7.7339    0.0000E+000
   7.7414    0.0000E+000
   7.7489    0.0000E+000
   7.7564    0.0000E+000
   7.7639    0.0000E+000
   7.7714    0.0000E+000
   7.7789    0.0000E+000
   7.7864    0.0000E+000
   7.7939    0.0000E+000
   7.8014    0.0000E+000
   7.8089    0.0000E+000
   7.8164    0.0000E+000
   7.8239    0.0000E+000
   7.8314    0.0000E+000
   7.8389    0.0000E+000
   7.8464    0.0000E+000
   7.8539    0.0000E+000
   7.8614    0.0000E+000
   7.8689    0.0000E+000
   7.8764    0.0000E+000
   7.8839    0.0000E+000
   7.8914    0.0000E+000
   7.8989    0.0000E+000
   7.9065    0.0000E+000
   7.9140    0.0000E+000
   7.9215    0.0000E+000
   7.9290    0.0000E+000
   7.9365    0.0000E+000
   7.9440    0.0000E+000
   7.9515    0.0000E+000
   7.9590    0.0000E+000
   7.9665    0.0000E+000
   7.9740    0.0000E+000
   7.9815    0.0000E+000
   7.9890    0.0000E+000
   7.9965    0.0000E+000
   8.0040    0.0000E+000
   8.0115    0.0000E+000
   8.0190    0.0000E+000
   8.0265    0.0000E+000
   8.0340    0.0000E+000
   8.0415    0.0000E+000
   8.0490    0.0000E+000
   8.0565    0.0000E+000
   8.0640    0.0000E+000
   8.0715    0.0000E+000
   8.0790    0.0000E+000
   8.0865    0.0000E+000
   8.0940    0.0000E+000
   8.1016    0.0000E+000
   8.1091    0.0000E+000
   8.1166    0.0000E+000
   8.1241    0.0000E+000
   8.1316    0.0000E+000
   8.1391    0.0000E+000
   8.1466    0.0000E+000
   8.1541    0.0000E+000
   8.1616    0.0000E+000
   8.1691    0.0000E+000
   8.1766    0.0000E+000
   8.1841    0.0000E+000
   8.1916    0.0000E+000
   8.1991    0.0000E+000
   8.2066    0.0000E+000
   8.2141    0.0000E+000
   8.2216    0.0000E+000
   8.2291    0.0000E+000
   8.2366    0.0000E+000
   8.2441    0.0000E+000
   8.2516    0.0000E+000
   8.2591    0.0000E+000
   8.2666    0.0000E+000
   8.2741    0.0000E+000
   8.2816    0.0000E+000
   8.2891    0.0000E+000
   8.2966    0.0000E+000
   8.3042    0.0000E+000
   8.3117    0.0000E+000
   8.3192    0.0000E+000
   8.3267    0.0000E+000
   8.3342    0.0000E+000
   8.3417    0.0000E+000
   8.3492    0.0000E+000
   8.3567    0.0000E+000
   8.3642    0.0000E+000
   8.3717    0.0000E+000
   8.3792    0.0000E+000
   8.3867    0.0000E+000
   8.3942    0.0000E+000
   8.4017    0.0000E+000
   8.4092    0.0000E+000
   8.4167    0.0000E+000
   8.4242    0.0000E+000
   8.4317    0.0000E+000
   8.4392    0.0000E+000
   8.4467    0.0000E+000
   8.4542    0.0000E+000
   8.4617    0.0000E+000
   8.4692    0.0000E+000
   8.4767    0.0000E+000
   8.4842    0.0000E+000
   8.4917    0.0000E+000
   8.4992    0.0000E+000
   8.5068    0.0000E+000
   8.5143    0.0000E+000
   8.5218    0.0000E+000
   8.5293    0.0000E+000
   8.5368    0.0000E+000
   8.5443    0.0000E+000
   8.5518    0.0000E+000
   8.5593    0.0000E+000
   8.5668    0.0000E+000
   8.5743    0.0000E+000
   8.5818    0.0000E+000
   8.5893    0.0000E+000
   8.5968    0.0000E+000
   8.6043    0.0000E+000
   8.6118    0.0000E+000
   8.6193    0.0000E+000
   8.6268    0.0000E+000
   8.6343    0.0000E+000
   8.6418    0.0000E+000
   8.6493    0.0000E+000
   8.6568    0.0000E+000
   8.6643    0.0000E+000
   8.6718    0.0000E+000
   8.6793    0.0000E+000
   8.6868    0.0000E+000
   8.6943    0.0000E+000
   8.7019    0.0000E+000
   8.7094    0.0000E+000
   8.7169    0.0000E+000
   8.7244    0.0000E+000
   8.7319    0.0000E+000
   8.7394    0.0000E+000
   8.7469    0.0000E+000
   8.7544    0.0000E+000
   8.7619    0.0000E+000
   8.7694    0.0000E+000
   8.7769    0.0000E+000
   8.7844    0.0000E+000
   8.7919    0.0000E+000
   8.7994    0.0000E+000
   8.8069    0.0000E+000
   8.8144    0.0000E+000
   8.8219    0.0000E+000
   8.8294    0.0000E+000
   8.8369    0.0000E+000
   8.8444    0.0000E+000
   8.8519    0.0000E+000
   8.8594    0.0000E+000
   8.8669    0.0000E+000
   8.8744    0.0000E+000
   8.8819    0.0000E+000
   8.8894    0.0000E+000
   8.8969    0.0000E+000
   8.9045    0.0000E+000
   8.9120    0.0000E+000
   8.9195    0.0000E+000
   8.9270    0.0000E+000
   8.9345    0.0000E+000
   8.9420    0.0000E+000
   8.9495    0.0000E+000
   8.9570    0.0000E+000
   8.9645    0.0000E+000
   8.9720    0.0000E+000
   8.9795    0.0000E+000
   8.9870    0.0000E+000
   8.9945    0.0000E+000
   9.0020    0.0000E+000
   9.0095    0.0000E+000
   9.0170    0.0000E+000
   9.0245    0.0000E+000
   9.0320    0.0000E+000
   9.0395    0.0000E+000
   9.0470    0.0000E+000
   9.0545    0.0000E+000
   9.0620    0.0000E+000
   9.0695    0.0000E+000
   9.0770    0.0000E+000
   9.0845    0.0000E+000
   9.0920    0.0000E+000
   9.0995    0.0000E+000
   9.1071    0.0000E+000
   9.1146    0.0000E+000
   9.1221    0.0000E+000
   9.1296    0.0000E+000
   9.1371    0.0000E+000
   9.1446    0.0000E+000
   9.1521    0.0000E+000
   9.1596    0.0000E+000
   9.1671    0.0000E+000
   9.1746    0.0000E+000
   9.1821    0.0000E+000
   9.1896    0.0000E+000
   9.1971    0.0000E+000
   9.2046    0.0000E+000
   9.2121    0.0000E+000
   9.2196    0.0000E+000
   9.2271    0.0000E+000
   9.2346    0.0000E+000
   9.2421    0.0000E+000
   9.2496    0.0000E+000
   9.2571    0.0000E+000
   9.2646    0.0000E+000
   9.2721    0.0000E+000
   9.2796    0.0000E+000
   9.2871    0.0000E+000
   9.2946    0.0000E+000
   9.3022    0.0000E+000
   9.3097    0.0000E+000
   9.3172    0.0000E+000
   9.3247    0.0000E+000
   9.3322    0.0000E+000
   9.3397    0.0000E+000
   9.3472    0.0000E+000
   9.3547    0.0000E+000
   9.3622    0.0000E+000
   9.3697    0.0000E+000
   9.3772    0.0000E+000
   9.3847    0.0000E+000
   9.3922    0.0000E+000
   9.3997    0.0000E+000
   9.4072    0.0000E+000
   9.4147    0.0000E+000
   9.4222    0.0000E+000
   9.4297    0.0000E+000
   9.4372    0.0000E+000
   9.4447    0.0000E+000
   9.4522    0.0000E+000
   9.4597    0.0000E+000
   9.4672    0.0000E+000
   9.4747    0.0000E+000
   9.4822    0.0000E+000
   9.4897    0.0000E+000
   9.4972    0.0000E+000
   9.5048    0.0000E+000
   9.5123    0.0000E+000
   9.5198    0.0000E+000
   9.5273    0.0000E+000
   9.5348    0.0000E+000
   9.5423    0.0000E+000
   9.5498    0.0000E+000
   9.5573    0.0000E+000
   9.5648    0.0000E+000
   9.5723    0.0000E+000
   9.5798    0.0000E+000
   9.5873    0.0000E+000
   9.5948    0.0000E+000
   9.6023    0.0000E+000
   9.6098    0.0000E+000
   9.6173    0.0000E+000
   9.6248    0.0000E+000
   9.6323    0.0000E+000
   9.6398    0.0000E+000
   9.6473    0.0000E+000
   9.6548    0.0000E+000
   9.6623    0.0000E+000
   9.6698    0.0000E+000
   9.6773    0.0000E+000
   9.6848    0.0000E+000
   9.6923    0.0000E+000
   9.6998    0.0000E+000
   9.7074    0.0000E+000
   9.7149    0.0000E+000
   9.7224    0.0000E+000
   9.7299    0.0000E+000
   9.7374    0.0000E+000
   9.7449    0.0000E+000
   9.7524    0.0000E+000
   9.7599    0.0000E+000
   9.7674    0.0000E+000
   9.7749    0.0000E+000
   9.7824    0.0000E+000
   9.7899    0.0000E+000
   9.7974    0.0000E+000
   9.8049    0.0000E+000
   9.8124    0.0000E+000
   9.8199    0.0000E+000
   9.8274    0.0000E+000
   9.8349    0.0000E+000
   9.8424    0.0000E+000
   9.8499    0.0000E+000
   9.8574    0.0000E+000
   9.8649    0.0000E+000
   9.8724    0.0000E+000
   9.8799    0.0000E+000
   9.8874    0.0000E+000
   9.8949    0.0000E+000
   9.9025    0.0000E+000
   9.9100    0.0000E+000
   9.9175    0.0000E+000
   9.9250    0.0000E+000
   9.9325    0.0000E+000
   9.9400    0.0000E+000
   9.9475    0.0000E+000
   9.9550    0.0000E+000
   9.9625    0.0000E+000
   9.9700    0.0000E+000
   9.9775    0.0000E+000
   9.9850    0.0000E+000
   9.9925    0.0000E+000
  10.0000    0.0000E+000
