 # E (eV)   ldos(E)
  -5.0000    0.0000E+000
  -4.9925    0.0000E+000
  -4.9850    0.0000E+000
  -4.9775    0.0000E+000
  -4.9700    0.0000E+000
  -4.9625    0.0000E+000
  -4.9550    0.0000E+000
  -4.9475    0.0000E+000
  -4.9400    0.0000E+000
  -4.9325    0.0000E+000
  -4.9250    0.0000E+000
  -4.9175    0.0000E+000
  -4.9100    0.0000E+000
  -4.9025    0.0000E+000
  -4.8949    0.0000E+000
  -4.8874    0.0000E+000
  -4.8799    0.0000E+000
  -4.8724    0.0000E+000
  -4.8649    0.0000E+000
  -4.8574    0.0000E+000
  -4.8499    0.0000E+000
  -4.8424    0.0000E+000
  -4.8349    0.0000E+000
  -4.8274    0.0000E+000
  -4.8199    0.0000E+000
  -4.8124    0.0000E+000
  -4.8049    0.0000E+000
  -4.7974    0.0000E+000
  -4.7899    0.0000E+000
  -4.7824    0.0000E+000
  -4.7749    0.0000E+000
  -4.7674    0.0000E+000
  -4.7599    0.0000E+000
  -4.7524    0.0000E+000
  -4.7449    0.0000E+000
  -4.7374    0.0000E+000
  -4.7299    0.0000E+000
  -4.7224    0.0000E+000
  -4.7149    0.0000E+000
  -4.7074    0.0000E+000
  -4.6998    0.0000E+000
  -4.6923    0.0000E+000
  -4.6848    0.0000E+000
  -4.6773    0.0000E+000
  -4.6698    0.0000E+000
  -4.6623    0.0000E+000
  -4.6548    0.0000E+000
  -4.6473    0.0000E+000
  -4.6398    0.0000E+000
  -4.6323    0.0000E+000
  -4.6248    0.0000E+000
  -4.6173    0.0000E+000
  -4.6098    0.0000E+000
  -4.6023    0.0000E+000
  -4.5948    0.0000E+000
  -4.5873    0.0000E+000
  -4.5798    0.0000E+000
  -4.5723    0.0000E+000
  -4.5648    0.0000E+000
  -4.5573    0.0000E+000
  -4.5498    0.0000E+000
  -4.5423    0.0000E+000
  -4.5348    0.0000E+000
  -4.5273    0.0000E+000
  -4.5198    0.0000E+000
  -4.5123    0.0000E+000
  -4.5048    0.0000E+000
  -4.4972    0.0000E+000
  -4.4897    0.0000E+000
  -4.4822    0.0000E+000
  -4.4747    0.0000E+000
  -4.4672    0.0000E+000
  -4.4597    0.0000E+000
  -4.4522    0.0000E+000
  -4.4447    0.0000E+000
  -4.4372    0.0000E+000
  -4.4297    0.0000E+000
  -4.4222    0.0000E+000
  -4.4147    0.0000E+000
  -4.4072    0.0000E+000
  -4.3997    0.0000E+000
  -4.3922    0.0000E+000
  -4.3847    0.3050E-304
  -4.3772    0.8463E-301
  -4.3697    0.2236E-297
  -4.3622    0.5646E-294
  -4.3547    0.1363E-290
  -4.3472    0.3146E-287
  -4.3397    0.6942E-284
  -4.3322    0.1464E-280
  -4.3247    0.2953E-277
  -4.3172    0.5691E-274
  -4.3097    0.1049E-270
  -4.3022    0.1848E-267
  -4.2946    0.3111E-264
  -4.2871    0.5009E-261
  -4.2796    0.7709E-258
  -4.2721    0.1134E-254
  -4.2646    0.1595E-251
  -4.2571    0.2145E-248
  -4.2496    0.2757E-245
  -4.2421    0.3388E-242
  -4.2346    0.3980E-239
  -4.2271    0.4469E-236
  -4.2196    0.4797E-233
  -4.2121    0.4923E-230
  -4.2046    0.4830E-227
  -4.1971    0.4530E-224
  -4.1896    0.4062E-221
  -4.1821    0.3482E-218
  -4.1746    0.2853E-215
  -4.1671    0.2235E-212
  -4.1596    0.1673E-209
  -4.1521    0.1198E-206
  -4.1446    0.8198E-204
  -4.1371    0.5363E-201
  -4.1296    0.3354E-198
  -4.1221    0.2006E-195
  -4.1146    0.1146E-192
  -4.1071    0.6264E-190
  -4.0995    0.3272E-187
  -4.0920    0.1634E-184
  -4.0845    0.7800E-182
  -4.0770    0.3560E-179
  -4.0695    0.1553E-176
  -4.0620    0.6477E-174
  -4.0545    0.2582E-171
  -4.0470    0.9843E-169
  -4.0395    0.3587E-166
  -4.0320    0.1249E-163
  -4.0245    0.4161E-161
  -4.0170    0.1325E-158
  -4.0095    0.4031E-156
  -4.0020    0.1173E-153
  -3.9945    0.3262E-151
  -3.9870    0.8675E-149
  -3.9795    0.2205E-146
  -3.9720    0.5359E-144
  -3.9645    0.1245E-141
  -3.9570    0.2765E-139
  -3.9495    0.5870E-137
  -3.9420    0.1191E-134
  -3.9345    0.2312E-132
  -3.9270    0.4288E-130
  -3.9195    0.7604E-128
  -3.9120    0.1289E-125
  -3.9045    0.2089E-123
  -3.8969    0.3237E-121
  -3.8894    0.4795E-119
  -3.8819    0.6789E-117
  -3.8744    0.9190E-115
  -3.8669    0.1189E-112
  -3.8594    0.1471E-110
  -3.8519    0.1740E-108
  -3.8444    0.1968E-106
  -3.8369    0.2127E-104
  -3.8294    0.2198E-102
  -3.8219    0.2171E-100
  -3.8144    0.2051E-098
  -3.8069    0.1851E-096
  -3.7994    0.1598E-094
  -3.7919    0.1319E-092
  -3.7844    0.1040E-090
  -3.7769    0.7846E-089
  -3.7694    0.5657E-087
  -3.7619    0.3899E-085
  -3.7544    0.2569E-083
  -3.7469    0.1619E-081
  -3.7394    0.9748E-080
  -3.7319    0.5612E-078
  -3.7244    0.3089E-076
  -3.7169    0.1626E-074
  -3.7094    0.8178E-073
  -3.7019    0.3933E-071
  -3.6943    0.1809E-069
  -3.6868    0.7950E-068
  -3.6793    0.3341E-066
  -3.6718    0.1342E-064
  -3.6643    0.5156E-063
  -3.6568    0.1893E-061
  -3.6493    0.6647E-060
  -3.6418    0.2231E-058
  -3.6343    0.7158E-057
  -3.6268    0.2196E-055
  -3.6193    0.6440E-054
  -3.6118    0.1806E-052
  -3.6043    0.4841E-051
  -3.5968    0.1241E-049
  -3.5893    0.3039E-048
  -3.5818    0.7120E-047
  -3.5743    0.1595E-045
  -3.5668    0.3414E-044
  -3.5593    0.6989E-043
  -3.5518    0.1368E-041
  -3.5443    0.2559E-040
  -3.5368    0.4578E-039
  -3.5293    0.7830E-038
  -3.5218    0.1280E-036
  -3.5143    0.2002E-035
  -3.5068    0.2992E-034
  -3.4992    0.4276E-033
  -3.4917    0.5842E-032
  -3.4842    0.7632E-031
  -3.4767    0.9533E-030
  -3.4692    0.1138E-028
  -3.4617    0.1300E-027
  -3.4542    0.1419E-026
  -3.4467    0.1481E-025
  -3.4392    0.1478E-024
  -3.4317    0.1410E-023
  -3.4242    0.1287E-022
  -3.4167    0.1123E-021
  -3.4092    0.9363E-021
  -3.4017    0.7468E-020
  -3.3942    0.5695E-019
  -3.3867    0.4153E-018
  -3.3792    0.2896E-017
  -3.3717    0.1931E-016
  -3.3642    0.1231E-015
  -3.3567    0.7504E-015
  -3.3492    0.4375E-014
  -3.3417    0.2439E-013
  -3.3342    0.1300E-012
  -3.3267    0.6628E-012
  -3.3192    0.3231E-011
  -3.3117    0.1507E-010
  -3.3042    0.6718E-010
  -3.2966    0.2865E-009
  -3.2891    0.1168E-008
  -3.2816    0.4558E-008
  -3.2741    0.1701E-007
  -3.2666    0.6069E-007
  -3.2591    0.2072E-006
  -3.2516    0.6765E-006
  -3.2441    0.2113E-005
  -3.2366    0.6315E-005
  -3.2291    0.1806E-004
  -3.2216    0.4939E-004
  -3.2141    0.1293E-003
  -3.2066    0.3238E-003
  -3.1991    0.7762E-003
  -3.1916    0.1781E-002
  -3.1841    0.3911E-002
  -3.1766    0.8222E-002
  -3.1691    0.1655E-001
  -3.1616    0.3190E-001
  -3.1541    0.5891E-001
  -3.1466    0.1042E+000
  -3.1391    0.1766E+000
  -3.1316    0.2870E+000
  -3.1241    0.4473E+000
  -3.1166    0.6686E+000
  -3.1091    0.9593E+000
  -3.1016    0.1322E+001
  -3.0940    0.1751E+001
  -3.0865    0.2230E+001
  -3.0790    0.2736E+001
  -3.0715    0.3235E+001
  -3.0640    0.3694E+001
  -3.0565    0.4081E+001
  -3.0490    0.4370E+001
  -3.0415    0.4548E+001
  -3.0340    0.4614E+001
  -3.0265    0.4578E+001
  -3.0190    0.4460E+001
  -3.0115    0.4283E+001
  -3.0040    0.4071E+001
  -2.9965    0.3846E+001
  -2.9890    0.3622E+001
  -2.9815    0.3411E+001
  -2.9740    0.3219E+001
  -2.9665    0.3047E+001
  -2.9590    0.2896E+001
  -2.9515    0.2763E+001
  -2.9440    0.2646E+001
  -2.9365    0.2543E+001
  -2.9290    0.2450E+001
  -2.9215    0.2367E+001
  -2.9140    0.2292E+001
  -2.9065    0.2223E+001
  -2.8989    0.2160E+001
  -2.8914    0.2103E+001
  -2.8839    0.2049E+001
  -2.8764    0.2000E+001
  -2.8689    0.1955E+001
  -2.8614    0.1912E+001
  -2.8539    0.1873E+001
  -2.8464    0.1836E+001
  -2.8389    0.1802E+001
  -2.8314    0.1770E+001
  -2.8239    0.1740E+001
  -2.8164    0.1712E+001
  -2.8089    0.1685E+001
  -2.8014    0.1660E+001
  -2.7939    0.1636E+001
  -2.7864    0.1614E+001
  -2.7789    0.1592E+001
  -2.7714    0.1572E+001
  -2.7639    0.1553E+001
  -2.7564    0.1534E+001
  -2.7489    0.1517E+001
  -2.7414    0.1500E+001
  -2.7339    0.1484E+001
  -2.7264    0.1469E+001
  -2.7189    0.1454E+001
  -2.7114    0.1439E+001
  -2.7039    0.1425E+001
  -2.6963    0.1412E+001
  -2.6888    0.1399E+001
  -2.6813    0.1386E+001
  -2.6738    0.1374E+001
  -2.6663    0.1362E+001
  -2.6588    0.1350E+001
  -2.6513    0.1339E+001
  -2.6438    0.1327E+001
  -2.6363    0.1316E+001
  -2.6288    0.1306E+001
  -2.6213    0.1295E+001
  -2.6138    0.1285E+001
  -2.6063    0.1274E+001
  -2.5988    0.1264E+001
  -2.5913    0.1254E+001
  -2.5838    0.1245E+001
  -2.5763    0.1235E+001
  -2.5688    0.1226E+001
  -2.5613    0.1216E+001
  -2.5538    0.1207E+001
  -2.5463    0.1198E+001
  -2.5388    0.1189E+001
  -2.5313    0.1180E+001
  -2.5238    0.1172E+001
  -2.5163    0.1163E+001
  -2.5088    0.1155E+001
  -2.5013    0.1146E+001
  -2.4937    0.1138E+001
  -2.4862    0.1130E+001
  -2.4787    0.1122E+001
  -2.4712    0.1114E+001
  -2.4637    0.1107E+001
  -2.4562    0.1099E+001
  -2.4487    0.1092E+001
  -2.4412    0.1084E+001
  -2.4337    0.1077E+001
  -2.4262    0.1070E+001
  -2.4187    0.1063E+001
  -2.4112    0.1056E+001
  -2.4037    0.1050E+001
  -2.3962    0.1043E+001
  -2.3887    0.1037E+001
  -2.3812    0.1030E+001
  -2.3737    0.1024E+001
  -2.3662    0.1018E+001
  -2.3587    0.1012E+001
  -2.3512    0.1006E+001
  -2.3437    0.1001E+001
  -2.3362    0.9951E+000
  -2.3287    0.9896E+000
  -2.3212    0.9843E+000
  -2.3137    0.9791E+000
  -2.3062    0.9740E+000
  -2.2986    0.9689E+000
  -2.2911    0.9641E+000
  -2.2836    0.9593E+000
  -2.2761    0.9546E+000
  -2.2686    0.9500E+000
  -2.2611    0.9455E+000
  -2.2536    0.9411E+000
  -2.2461    0.9368E+000
  -2.2386    0.9326E+000
  -2.2311    0.9285E+000
  -2.2236    0.9245E+000
  -2.2161    0.9205E+000
  -2.2086    0.9167E+000
  -2.2011    0.9129E+000
  -2.1936    0.9092E+000
  -2.1861    0.9056E+000
  -2.1786    0.9020E+000
  -2.1711    0.8986E+000
  -2.1636    0.8951E+000
  -2.1561    0.8918E+000
  -2.1486    0.8885E+000
  -2.1411    0.8853E+000
  -2.1336    0.8821E+000
  -2.1261    0.8790E+000
  -2.1186    0.8759E+000
  -2.1111    0.8729E+000
  -2.1036    0.8700E+000
  -2.0960    0.8671E+000
  -2.0885    0.8642E+000
  -2.0810    0.8614E+000
  -2.0735    0.8586E+000
  -2.0660    0.8558E+000
  -2.0585    0.8531E+000
  -2.0510    0.8504E+000
  -2.0435    0.8478E+000
  -2.0360    0.8452E+000
  -2.0285    0.8426E+000
  -2.0210    0.8400E+000
  -2.0135    0.8375E+000
  -2.0060    0.8349E+000
  -1.9985    0.8324E+000
  -1.9910    0.8300E+000
  -1.9835    0.8275E+000
  -1.9760    0.8251E+000
  -1.9685    0.8227E+000
  -1.9610    0.8202E+000
  -1.9535    0.8179E+000
  -1.9460    0.8155E+000
  -1.9385    0.8131E+000
  -1.9310    0.8107E+000
  -1.9235    0.8084E+000
  -1.9160    0.8061E+000
  -1.9085    0.8037E+000
  -1.9010    0.8014E+000
  -1.8934    0.7991E+000
  -1.8859    0.7968E+000
  -1.8784    0.7945E+000
  -1.8709    0.7922E+000
  -1.8634    0.7899E+000
  -1.8559    0.7876E+000
  -1.8484    0.7853E+000
  -1.8409    0.7830E+000
  -1.8334    0.7808E+000
  -1.8259    0.7785E+000
  -1.8184    0.7762E+000
  -1.8109    0.7740E+000
  -1.8034    0.7717E+000
  -1.7959    0.7695E+000
  -1.7884    0.7672E+000
  -1.7809    0.7650E+000
  -1.7734    0.7628E+000
  -1.7659    0.7606E+000
  -1.7584    0.7583E+000
  -1.7509    0.7561E+000
  -1.7434    0.7539E+000
  -1.7359    0.7517E+000
  -1.7284    0.7495E+000
  -1.7209    0.7473E+000
  -1.7134    0.7451E+000
  -1.7059    0.7430E+000
  -1.6983    0.7408E+000
  -1.6908    0.7387E+000
  -1.6833    0.7365E+000
  -1.6758    0.7344E+000
  -1.6683    0.7323E+000
  -1.6608    0.7301E+000
  -1.6533    0.7280E+000
  -1.6458    0.7260E+000
  -1.6383    0.7239E+000
  -1.6308    0.7218E+000
  -1.6233    0.7198E+000
  -1.6158    0.7177E+000
  -1.6083    0.7157E+000
  -1.6008    0.7137E+000
  -1.5933    0.7117E+000
  -1.5858    0.7097E+000
  -1.5783    0.7077E+000
  -1.5708    0.7058E+000
  -1.5633    0.7039E+000
  -1.5558    0.7019E+000
  -1.5483    0.7000E+000
  -1.5408    0.6982E+000
  -1.5333    0.6963E+000
  -1.5258    0.6944E+000
  -1.5183    0.6926E+000
  -1.5108    0.6908E+000
  -1.5033    0.6890E+000
  -1.4957    0.6872E+000
  -1.4882    0.6855E+000
  -1.4807    0.6837E+000
  -1.4732    0.6820E+000
  -1.4657    0.6803E+000
  -1.4582    0.6786E+000
  -1.4507    0.6769E+000
  -1.4432    0.6753E+000
  -1.4357    0.6737E+000
  -1.4282    0.6720E+000
  -1.4207    0.6704E+000
  -1.4132    0.6689E+000
  -1.4057    0.6673E+000
  -1.3982    0.6658E+000
  -1.3907    0.6643E+000
  -1.3832    0.6628E+000
  -1.3757    0.6613E+000
  -1.3682    0.6598E+000
  -1.3607    0.6584E+000
  -1.3532    0.6569E+000
  -1.3457    0.6555E+000
  -1.3382    0.6541E+000
  -1.3307    0.6528E+000
  -1.3232    0.6514E+000
  -1.3157    0.6501E+000
  -1.3082    0.6487E+000
  -1.3007    0.6474E+000
  -1.2931    0.6461E+000
  -1.2856    0.6449E+000
  -1.2781    0.6436E+000
  -1.2706    0.6424E+000
  -1.2631    0.6411E+000
  -1.2556    0.6399E+000
  -1.2481    0.6387E+000
  -1.2406    0.6375E+000
  -1.2331    0.6363E+000
  -1.2256    0.6352E+000
  -1.2181    0.6340E+000
  -1.2106    0.6329E+000
  -1.2031    0.6318E+000
  -1.1956    0.6307E+000
  -1.1881    0.6296E+000
  -1.1806    0.6285E+000
  -1.1731    0.6274E+000
  -1.1656    0.6263E+000
  -1.1581    0.6253E+000
  -1.1506    0.6242E+000
  -1.1431    0.6232E+000
  -1.1356    0.6222E+000
  -1.1281    0.6212E+000
  -1.1206    0.6202E+000
  -1.1131    0.6192E+000
  -1.1056    0.6182E+000
  -1.0980    0.6172E+000
  -1.0905    0.6162E+000
  -1.0830    0.6152E+000
  -1.0755    0.6143E+000
  -1.0680    0.6133E+000
  -1.0605    0.6124E+000
  -1.0530    0.6114E+000
  -1.0455    0.6105E+000
  -1.0380    0.6095E+000
  -1.0305    0.6086E+000
  -1.0230    0.6077E+000
  -1.0155    0.6068E+000
  -1.0080    0.6058E+000
  -1.0005    0.6049E+000
  -0.9930    0.6040E+000
  -0.9855    0.6031E+000
  -0.9780    0.6022E+000
  -0.9705    0.6013E+000
  -0.9630    0.6004E+000
  -0.9555    0.5995E+000
  -0.9480    0.5986E+000
  -0.9405    0.5977E+000
  -0.9330    0.5968E+000
  -0.9255    0.5959E+000
  -0.9180    0.5950E+000
  -0.9105    0.5941E+000
  -0.9030    0.5932E+000
  -0.8954    0.5923E+000
  -0.8879    0.5914E+000
  -0.8804    0.5906E+000
  -0.8729    0.5897E+000
  -0.8654    0.5888E+000
  -0.8579    0.5879E+000
  -0.8504    0.5870E+000
  -0.8429    0.5861E+000
  -0.8354    0.5852E+000
  -0.8279    0.5843E+000
  -0.8204    0.5834E+000
  -0.8129    0.5825E+000
  -0.8054    0.5816E+000
  -0.7979    0.5807E+000
  -0.7904    0.5798E+000
  -0.7829    0.5789E+000
  -0.7754    0.5780E+000
  -0.7679    0.5771E+000
  -0.7604    0.5762E+000
  -0.7529    0.5753E+000
  -0.7454    0.5744E+000
  -0.7379    0.5735E+000
  -0.7304    0.5726E+000
  -0.7229    0.5717E+000
  -0.7154    0.5708E+000
  -0.7079    0.5699E+000
  -0.7004    0.5690E+000
  -0.6928    0.5681E+000
  -0.6853    0.5671E+000
  -0.6778    0.5662E+000
  -0.6703    0.5653E+000
  -0.6628    0.5644E+000
  -0.6553    0.5635E+000
  -0.6478    0.5626E+000
  -0.6403    0.5617E+000
  -0.6328    0.5608E+000
  -0.6253    0.5599E+000
  -0.6178    0.5590E+000
  -0.6103    0.5580E+000
  -0.6028    0.5571E+000
  -0.5953    0.5562E+000
  -0.5878    0.5553E+000
  -0.5803    0.5544E+000
  -0.5728    0.5535E+000
  -0.5653    0.5526E+000
  -0.5578    0.5517E+000
  -0.5503    0.5508E+000
  -0.5428    0.5499E+000
  -0.5353    0.5490E+000
  -0.5278    0.5481E+000
  -0.5203    0.5472E+000
  -0.5128    0.5464E+000
  -0.5053    0.5455E+000
  -0.4977    0.5446E+000
  -0.4902    0.5437E+000
  -0.4827    0.5428E+000
  -0.4752    0.5420E+000
  -0.4677    0.5411E+000
  -0.4602    0.5402E+000
  -0.4527    0.5394E+000
  -0.4452    0.5385E+000
  -0.4377    0.5377E+000
  -0.4302    0.5368E+000
  -0.4227    0.5360E+000
  -0.4152    0.5351E+000
  -0.4077    0.5343E+000
  -0.4002    0.5334E+000
  -0.3927    0.5326E+000
  -0.3852    0.5318E+000
  -0.3777    0.5310E+000
  -0.3702    0.5302E+000
  -0.3627    0.5293E+000
  -0.3552    0.5285E+000
  -0.3477    0.5277E+000
  -0.3402    0.5269E+000
  -0.3327    0.5262E+000
  -0.3252    0.5254E+000
  -0.3177    0.5246E+000
  -0.3102    0.5238E+000
  -0.3027    0.5231E+000
  -0.2951    0.5223E+000
  -0.2876    0.5215E+000
  -0.2801    0.5208E+000
  -0.2726    0.5201E+000
  -0.2651    0.5193E+000
  -0.2576    0.5186E+000
  -0.2501    0.5179E+000
  -0.2426    0.5171E+000
  -0.2351    0.5164E+000
  -0.2276    0.5157E+000
  -0.2201    0.5150E+000
  -0.2126    0.5143E+000
  -0.2051    0.5136E+000
  -0.1976    0.5130E+000
  -0.1901    0.5123E+000
  -0.1826    0.5116E+000
  -0.1751    0.5110E+000
  -0.1676    0.5103E+000
  -0.1601    0.5097E+000
  -0.1526    0.5090E+000
  -0.1451    0.5084E+000
  -0.1376    0.5077E+000
  -0.1301    0.5071E+000
  -0.1226    0.5065E+000
  -0.1151    0.5059E+000
  -0.1076    0.5053E+000
  -0.1001    0.5047E+000
  -0.0925    0.5041E+000
  -0.0850    0.5035E+000
  -0.0775    0.5029E+000
  -0.0700    0.5023E+000
  -0.0625    0.5018E+000
  -0.0550    0.5012E+000
  -0.0475    0.5007E+000
  -0.0400    0.5001E+000
  -0.0325    0.4996E+000
  -0.0250    0.4990E+000
  -0.0175    0.4985E+000
  -0.0100    0.4979E+000
  -0.0025    0.4974E+000
   0.0050    0.4969E+000
   0.0125    0.4964E+000
   0.0200    0.4959E+000
   0.0275    0.4954E+000
   0.0350    0.4949E+000
   0.0425    0.4944E+000
   0.0500    0.4939E+000
   0.0575    0.4934E+000
   0.0650    0.4929E+000
   0.0725    0.4925E+000
   0.0800    0.4920E+000
   0.0875    0.4915E+000
   0.0950    0.4911E+000
   0.1026    0.4906E+000
   0.1101    0.4901E+000
   0.1176    0.4897E+000
   0.1251    0.4892E+000
   0.1326    0.4888E+000
   0.1401    0.4884E+000
   0.1476    0.4879E+000
   0.1551    0.4875E+000
   0.1626    0.4871E+000
   0.1701    0.4867E+000
   0.1776    0.4862E+000
   0.1851    0.4858E+000
   0.1926    0.4854E+000
   0.2001    0.4850E+000
   0.2076    0.4846E+000
   0.2151    0.4842E+000
   0.2226    0.4838E+000
   0.2301    0.4834E+000
   0.2376    0.4830E+000
   0.2451    0.4826E+000
   0.2526    0.4822E+000
   0.2601    0.4818E+000
   0.2676    0.4814E+000
   0.2751    0.4810E+000
   0.2826    0.4806E+000
   0.2901    0.4802E+000
   0.2976    0.4798E+000
   0.3052    0.4795E+000
   0.3127    0.4791E+000
   0.3202    0.4787E+000
   0.3277    0.4783E+000
   0.3352    0.4779E+000
   0.3427    0.4776E+000
   0.3502    0.4772E+000
   0.3577    0.4768E+000
   0.3652    0.4764E+000
   0.3727    0.4761E+000
   0.3802    0.4757E+000
   0.3877    0.4753E+000
   0.3952    0.4749E+000
   0.4027    0.4746E+000
   0.4102    0.4742E+000
   0.4177    0.4738E+000
   0.4252    0.4735E+000
   0.4327    0.4731E+000
   0.4402    0.4727E+000
   0.4477    0.4723E+000
   0.4552    0.4720E+000
   0.4627    0.4716E+000
   0.4702    0.4712E+000
   0.4777    0.4709E+000
   0.4852    0.4705E+000
   0.4927    0.4701E+000
   0.5003    0.4697E+000
   0.5078    0.4694E+000
   0.5153    0.4690E+000
   0.5228    0.4686E+000
   0.5303    0.4682E+000
   0.5378    0.4679E+000
   0.5453    0.4675E+000
   0.5528    0.4671E+000
   0.5603    0.4667E+000
   0.5678    0.4663E+000
   0.5753    0.4660E+000
   0.5828    0.4656E+000
   0.5903    0.4652E+000
   0.5978    0.4648E+000
   0.6053    0.4644E+000
   0.6128    0.4641E+000
   0.6203    0.4637E+000
   0.6278    0.4633E+000
   0.6353    0.4629E+000
   0.6428    0.4625E+000
   0.6503    0.4621E+000
   0.6578    0.4617E+000
   0.6653    0.4613E+000
   0.6728    0.4609E+000
   0.6803    0.4605E+000
   0.6878    0.4602E+000
   0.6953    0.4598E+000
   0.7029    0.4594E+000
   0.7104    0.4590E+000
   0.7179    0.4586E+000
   0.7254    0.4582E+000
   0.7329    0.4578E+000
   0.7404    0.4574E+000
   0.7479    0.4570E+000
   0.7554    0.4566E+000
   0.7629    0.4562E+000
   0.7704    0.4558E+000
   0.7779    0.4554E+000
   0.7854    0.4550E+000
   0.7929    0.4546E+000
   0.8004    0.4542E+000
   0.8079    0.4538E+000
   0.8154    0.4534E+000
   0.8229    0.4530E+000
   0.8304    0.4526E+000
   0.8379    0.4521E+000
   0.8454    0.4517E+000
   0.8529    0.4513E+000
   0.8604    0.4509E+000
   0.8679    0.4505E+000
   0.8754    0.4501E+000
   0.8829    0.4497E+000
   0.8904    0.4493E+000
   0.8979    0.4489E+000
   0.9055    0.4485E+000
   0.9130    0.4481E+000
   0.9205    0.4477E+000
   0.9280    0.4473E+000
   0.9355    0.4469E+000
   0.9430    0.4465E+000
   0.9505    0.4461E+000
   0.9580    0.4457E+000
   0.9655    0.4453E+000
   0.9730    0.4449E+000
   0.9805    0.4445E+000
   0.9880    0.4441E+000
   0.9955    0.4437E+000
   1.0030    0.4433E+000
   1.0105    0.4429E+000
   1.0180    0.4425E+000
   1.0255    0.4422E+000
   1.0330    0.4418E+000
   1.0405    0.4414E+000
   1.0480    0.4410E+000
   1.0555    0.4406E+000
   1.0630    0.4402E+000
   1.0705    0.4398E+000
   1.0780    0.4395E+000
   1.0855    0.4391E+000
   1.0930    0.4387E+000
   1.1006    0.4383E+000
   1.1081    0.4380E+000
   1.1156    0.4376E+000
   1.1231    0.4372E+000
   1.1306    0.4368E+000
   1.1381    0.4365E+000
   1.1456    0.4361E+000
   1.1531    0.4358E+000
   1.1606    0.4354E+000
   1.1681    0.4350E+000
   1.1756    0.4347E+000
   1.1831    0.4343E+000
   1.1906    0.4340E+000
   1.1981    0.4336E+000
   1.2056    0.4333E+000
   1.2131    0.4329E+000
   1.2206    0.4326E+000
   1.2281    0.4323E+000
   1.2356    0.4319E+000
   1.2431    0.4316E+000
   1.2506    0.4313E+000
   1.2581    0.4309E+000
   1.2656    0.4306E+000
   1.2731    0.4303E+000
   1.2806    0.4300E+000
   1.2881    0.4296E+000
   1.2956    0.4293E+000
   1.3032    0.4290E+000
   1.3107    0.4287E+000
   1.3182    0.4284E+000
   1.3257    0.4281E+000
   1.3332    0.4278E+000
   1.3407    0.4275E+000
   1.3482    0.4272E+000
   1.3557    0.4269E+000
   1.3632    0.4266E+000
   1.3707    0.4263E+000
   1.3782    0.4260E+000
   1.3857    0.4258E+000
   1.3932    0.4255E+000
   1.4007    0.4252E+000
   1.4082    0.4249E+000
   1.4157    0.4247E+000
   1.4232    0.4244E+000
   1.4307    0.4241E+000
   1.4382    0.4239E+000
   1.4457    0.4236E+000
   1.4532    0.4233E+000
   1.4607    0.4231E+000
   1.4682    0.4228E+000
   1.4757    0.4226E+000
   1.4832    0.4223E+000
   1.4907    0.4221E+000
   1.4982    0.4218E+000
   1.5058    0.4216E+000
   1.5133    0.4214E+000
   1.5208    0.4211E+000
   1.5283    0.4209E+000
   1.5358    0.4207E+000
   1.5433    0.4204E+000
   1.5508    0.4202E+000
   1.5583    0.4200E+000
   1.5658    0.4198E+000
   1.5733    0.4196E+000
   1.5808    0.4193E+000
   1.5883    0.4191E+000
   1.5958    0.4189E+000
   1.6033    0.4187E+000
   1.6108    0.4185E+000
   1.6183    0.4183E+000
   1.6258    0.4181E+000
   1.6333    0.4179E+000
   1.6408    0.4177E+000
   1.6483    0.4175E+000
   1.6558    0.4173E+000
   1.6633    0.4171E+000
   1.6708    0.4169E+000
   1.6783    0.4167E+000
   1.6858    0.4166E+000
   1.6933    0.4164E+000
   1.7009    0.4162E+000
   1.7084    0.4160E+000
   1.7159    0.4158E+000
   1.7234    0.4157E+000
   1.7309    0.4155E+000
   1.7384    0.4153E+000
   1.7459    0.4151E+000
   1.7534    0.4150E+000
   1.7609    0.4148E+000
   1.7684    0.4146E+000
   1.7759    0.4145E+000
   1.7834    0.4143E+000
   1.7909    0.4141E+000
   1.7984    0.4140E+000
   1.8059    0.4138E+000
   1.8134    0.4136E+000
   1.8209    0.4135E+000
   1.8284    0.4133E+000
   1.8359    0.4132E+000
   1.8434    0.4130E+000
   1.8509    0.4129E+000
   1.8584    0.4127E+000
   1.8659    0.4125E+000
   1.8734    0.4124E+000
   1.8809    0.4122E+000
   1.8884    0.4121E+000
   1.8959    0.4119E+000
   1.9035    0.4118E+000
   1.9110    0.4116E+000
   1.9185    0.4115E+000
   1.9260    0.4113E+000
   1.9335    0.4112E+000
   1.9410    0.4110E+000
   1.9485    0.4109E+000
   1.9560    0.4107E+000
   1.9635    0.4106E+000
   1.9710    0.4104E+000
   1.9785    0.4103E+000
   1.9860    0.4101E+000
   1.9935    0.4100E+000
   2.0010    0.4099E+000
   2.0085    0.4097E+000
   2.0160    0.4096E+000
   2.0235    0.4094E+000
   2.0310    0.4093E+000
   2.0385    0.4091E+000
   2.0460    0.4090E+000
   2.0535    0.4088E+000
   2.0610    0.4087E+000
   2.0685    0.4085E+000
   2.0760    0.4084E+000
   2.0835    0.4082E+000
   2.0910    0.4081E+000
   2.0985    0.4079E+000
   2.1061    0.4078E+000
   2.1136    0.4076E+000
   2.1211    0.4075E+000
   2.1286    0.4073E+000
   2.1361    0.4072E+000
   2.1436    0.4070E+000
   2.1511    0.4069E+000
   2.1586    0.4067E+000
   2.1661    0.4066E+000
   2.1736    0.4064E+000
   2.1811    0.4062E+000
   2.1886    0.4061E+000
   2.1961    0.4059E+000
   2.2036    0.4058E+000
   2.2111    0.4056E+000
   2.2186    0.4055E+000
   2.2261    0.4053E+000
   2.2336    0.4051E+000
   2.2411    0.4050E+000
   2.2486    0.4048E+000
   2.2561    0.4047E+000
   2.2636    0.4045E+000
   2.2711    0.4043E+000
   2.2786    0.4042E+000
   2.2861    0.4040E+000
   2.2936    0.4038E+000
   2.3012    0.4037E+000
   2.3087    0.4035E+000
   2.3162    0.4033E+000
   2.3237    0.4032E+000
   2.3312    0.4030E+000
   2.3387    0.4028E+000
   2.3462    0.4027E+000
   2.3537    0.4025E+000
   2.3612    0.4023E+000
   2.3687    0.4021E+000
   2.3762    0.4020E+000
   2.3837    0.4018E+000
   2.3912    0.4016E+000
   2.3987    0.4014E+000
   2.4062    0.4013E+000
   2.4137    0.4011E+000
   2.4212    0.4009E+000
   2.4287    0.4007E+000
   2.4362    0.4006E+000
   2.4437    0.4004E+000
   2.4512    0.4002E+000
   2.4587    0.4000E+000
   2.4662    0.3998E+000
   2.4737    0.3997E+000
   2.4812    0.3995E+000
   2.4887    0.3993E+000
   2.4962    0.3991E+000
   2.5038    0.3990E+000
   2.5113    0.3988E+000
   2.5188    0.3986E+000
   2.5263    0.3984E+000
   2.5338    0.3982E+000
   2.5413    0.3981E+000
   2.5488    0.3979E+000
   2.5563    0.3977E+000
   2.5638    0.3975E+000
   2.5713    0.3973E+000
   2.5788    0.3972E+000
   2.5863    0.3970E+000
   2.5938    0.3968E+000
   2.6013    0.3966E+000
   2.6088    0.3964E+000
   2.6163    0.3963E+000
   2.6238    0.3961E+000
   2.6313    0.3959E+000
   2.6388    0.3957E+000
   2.6463    0.3955E+000
   2.6538    0.3954E+000
   2.6613    0.3952E+000
   2.6688    0.3950E+000
   2.6763    0.3948E+000
   2.6838    0.3947E+000
   2.6913    0.3945E+000
   2.6988    0.3943E+000
   2.7064    0.3941E+000
   2.7139    0.3940E+000
   2.7214    0.3938E+000
   2.7289    0.3936E+000
   2.7364    0.3935E+000
   2.7439    0.3933E+000
   2.7514    0.3931E+000
   2.7589    0.3930E+000
   2.7664    0.3928E+000
   2.7739    0.3926E+000
   2.7814    0.3925E+000
   2.7889    0.3923E+000
   2.7964    0.3922E+000
   2.8039    0.3920E+000
   2.8114    0.3918E+000
   2.8189    0.3917E+000
   2.8264    0.3915E+000
   2.8339    0.3914E+000
   2.8414    0.3912E+000
   2.8489    0.3911E+000
   2.8564    0.3909E+000
   2.8639    0.3908E+000
   2.8714    0.3906E+000
   2.8789    0.3905E+000
   2.8864    0.3903E+000
   2.8939    0.3902E+000
   2.9015    0.3901E+000
   2.9090    0.3899E+000
   2.9165    0.3898E+000
   2.9240    0.3897E+000
   2.9315    0.3895E+000
   2.9390    0.3894E+000
   2.9465    0.3893E+000
   2.9540    0.3891E+000
   2.9615    0.3890E+000
   2.9690    0.3889E+000
   2.9765    0.3888E+000
   2.9840    0.3886E+000
   2.9915    0.3885E+000
   2.9990    0.3884E+000
   3.0065    0.3883E+000
   3.0140    0.3882E+000
   3.0215    0.3881E+000
   3.0290    0.3880E+000
   3.0365    0.3879E+000
   3.0440    0.3878E+000
   3.0515    0.3877E+000
   3.0590    0.3876E+000
   3.0665    0.3875E+000
   3.0740    0.3874E+000
   3.0815    0.3873E+000
   3.0890    0.3872E+000
   3.0965    0.3871E+000
   3.1041    0.3870E+000
   3.1116    0.3869E+000
   3.1191    0.3869E+000
   3.1266    0.3868E+000
   3.1341    0.3867E+000
   3.1416    0.3866E+000
   3.1491    0.3866E+000
   3.1566    0.3865E+000
   3.1641    0.3864E+000
   3.1716    0.3864E+000
   3.1791    0.3863E+000
   3.1866    0.3863E+000
   3.1941    0.3862E+000
   3.2016    0.3861E+000
   3.2091    0.3861E+000
   3.2166    0.3860E+000
   3.2241    0.3860E+000
   3.2316    0.3859E+000
   3.2391    0.3859E+000
   3.2466    0.3859E+000
   3.2541    0.3858E+000
   3.2616    0.3858E+000
   3.2691    0.3858E+000
   3.2766    0.3857E+000
   3.2841    0.3857E+000
   3.2916    0.3857E+000
   3.2991    0.3857E+000
   3.3067    0.3856E+000
   3.3142    0.3856E+000
   3.3217    0.3856E+000
   3.3292    0.3856E+000
   3.3367    0.3856E+000
   3.3442    0.3856E+000
   3.3517    0.3856E+000
   3.3592    0.3855E+000
   3.3667    0.3855E+000
   3.3742    0.3855E+000
   3.3817    0.3855E+000
   3.3892    0.3855E+000
   3.3967    0.3856E+000
   3.4042    0.3856E+000
   3.4117    0.3856E+000
   3.4192    0.3856E+000
   3.4267    0.3856E+000
   3.4342    0.3856E+000
   3.4417    0.3856E+000
   3.4492    0.3857E+000
   3.4567    0.3857E+000
   3.4642    0.3857E+000
   3.4717    0.3857E+000
   3.4792    0.3858E+000
   3.4867    0.3858E+000
   3.4942    0.3858E+000
   3.5018    0.3858E+000
   3.5093    0.3859E+000
   3.5168    0.3859E+000
   3.5243    0.3860E+000
   3.5318    0.3860E+000
   3.5393    0.3860E+000
   3.5468    0.3861E+000
   3.5543    0.3861E+000
   3.5618    0.3862E+000
   3.5693    0.3862E+000
   3.5768    0.3863E+000
   3.5843    0.3863E+000
   3.5918    0.3864E+000
   3.5993    0.3864E+000
   3.6068    0.3865E+000
   3.6143    0.3866E+000
   3.6218    0.3866E+000
   3.6293    0.3867E+000
   3.6368    0.3867E+000
   3.6443    0.3868E+000
   3.6518    0.3869E+000
   3.6593    0.3869E+000
   3.6668    0.3870E+000
   3.6743    0.3871E+000
   3.6818    0.3872E+000
   3.6893    0.3872E+000
   3.6968    0.3873E+000
   3.7044    0.3874E+000
   3.7119    0.3874E+000
   3.7194    0.3875E+000
   3.7269    0.3876E+000
   3.7344    0.3877E+000
   3.7419    0.3878E+000
   3.7494    0.3878E+000
   3.7569    0.3879E+000
   3.7644    0.3880E+000
   3.7719    0.3881E+000
   3.7794    0.3882E+000
   3.7869    0.3883E+000
   3.7944    0.3883E+000
   3.8019    0.3884E+000
   3.8094    0.3885E+000
   3.8169    0.3886E+000
   3.8244    0.3887E+000
   3.8319    0.3888E+000
   3.8394    0.3889E+000
   3.8469    0.3890E+000
   3.8544    0.3891E+000
   3.8619    0.3891E+000
   3.8694    0.3892E+000
   3.8769    0.3893E+000
   3.8844    0.3894E+000
   3.8919    0.3895E+000
   3.8994    0.3896E+000
   3.9070    0.3897E+000
   3.9145    0.3898E+000
   3.9220    0.3899E+000
   3.9295    0.3900E+000
   3.9370    0.3901E+000
   3.9445    0.3902E+000
   3.9520    0.3903E+000
   3.9595    0.3904E+000
   3.9670    0.3905E+000
   3.9745    0.3906E+000
   3.9820    0.3907E+000
   3.9895    0.3908E+000
   3.9970    0.3909E+000
   4.0045    0.3910E+000
   4.0120    0.3911E+000
   4.0195    0.3912E+000
   4.0270    0.3913E+000
   4.0345    0.3914E+000
   4.0420    0.3915E+000
   4.0495    0.3916E+000
   4.0570    0.3917E+000
   4.0645    0.3918E+000
   4.0720    0.3919E+000
   4.0795    0.3920E+000
   4.0870    0.3921E+000
   4.0945    0.3922E+000
   4.1021    0.3923E+000
   4.1096    0.3924E+000
   4.1171    0.3925E+000
   4.1246    0.3926E+000
   4.1321    0.3927E+000
   4.1396    0.3929E+000
   4.1471    0.3930E+000
   4.1546    0.3931E+000
   4.1621    0.3932E+000
   4.1696    0.3933E+000
   4.1771    0.3934E+000
   4.1846    0.3935E+000
   4.1921    0.3936E+000
   4.1996    0.3937E+000
   4.2071    0.3938E+000
   4.2146    0.3940E+000
   4.2221    0.3941E+000
   4.2296    0.3942E+000
   4.2371    0.3943E+000
   4.2446    0.3944E+000
   4.2521    0.3945E+000
   4.2596    0.3946E+000
   4.2671    0.3948E+000
   4.2746    0.3949E+000
   4.2821    0.3950E+000
   4.2896    0.3951E+000
   4.2971    0.3952E+000
   4.3047    0.3954E+000
   4.3122    0.3955E+000
   4.3197    0.3956E+000
   4.3272    0.3958E+000
   4.3347    0.3959E+000
   4.3422    0.3960E+000
   4.3497    0.3961E+000
   4.3572    0.3963E+000
   4.3647    0.3964E+000
   4.3722    0.3965E+000
   4.3797    0.3967E+000
   4.3872    0.3968E+000
   4.3947    0.3970E+000
   4.4022    0.3971E+000
   4.4097    0.3973E+000
   4.4172    0.3974E+000
   4.4247    0.3975E+000
   4.4322    0.3977E+000
   4.4397    0.3979E+000
   4.4472    0.3980E+000
   4.4547    0.3982E+000
   4.4622    0.3983E+000
   4.4697    0.3985E+000
   4.4772    0.3987E+000
   4.4847    0.3988E+000
   4.4922    0.3990E+000
   4.4997    0.3992E+000
   4.5073    0.3993E+000
   4.5148    0.3995E+000
   4.5223    0.3997E+000
   4.5298    0.3999E+000
   4.5373    0.4001E+000
   4.5448    0.4003E+000
   4.5523    0.4005E+000
   4.5598    0.4007E+000
   4.5673    0.4009E+000
   4.5748    0.4011E+000
   4.5823    0.4013E+000
   4.5898    0.4015E+000
   4.5973    0.4017E+000
   4.6048    0.4019E+000
   4.6123    0.4021E+000
   4.6198    0.4024E+000
   4.6273    0.4026E+000
   4.6348    0.4028E+000
   4.6423    0.4031E+000
   4.6498    0.4033E+000
   4.6573    0.4036E+000
   4.6648    0.4038E+000
   4.6723    0.4041E+000
   4.6798    0.4043E+000
   4.6873    0.4046E+000
   4.6948    0.4049E+000
   4.7024    0.4052E+000
   4.7099    0.4055E+000
   4.7174    0.4057E+000
   4.7249    0.4060E+000
   4.7324    0.4063E+000
   4.7399    0.4066E+000
   4.7474    0.4069E+000
   4.7549    0.4073E+000
   4.7624    0.4076E+000
   4.7699    0.4079E+000
   4.7774    0.4083E+000
   4.7849    0.4086E+000
   4.7924    0.4089E+000
   4.7999    0.4093E+000
   4.8074    0.4097E+000
   4.8149    0.4100E+000
   4.8224    0.4104E+000
   4.8299    0.4108E+000
   4.8374    0.4112E+000
   4.8449    0.4116E+000
   4.8524    0.4120E+000
   4.8599    0.4124E+000
   4.8674    0.4128E+000
   4.8749    0.4132E+000
   4.8824    0.4136E+000
   4.8899    0.4141E+000
   4.8974    0.4145E+000
   4.9050    0.4150E+000
   4.9125    0.4155E+000
   4.9200    0.4159E+000
   4.9275    0.4164E+000
   4.9350    0.4169E+000
   4.9425    0.4174E+000
   4.9500    0.4179E+000
   4.9575    0.4184E+000
   4.9650    0.4189E+000
   4.9725    0.4195E+000
   4.9800    0.4200E+000
   4.9875    0.4206E+000
   4.9950    0.4211E+000
   5.0025    0.4217E+000
   5.0100    0.4223E+000
   5.0175    0.4229E+000
   5.0250    0.4235E+000
   5.0325    0.4241E+000
   5.0400    0.4247E+000
   5.0475    0.4254E+000
   5.0550    0.4260E+000
   5.0625    0.4267E+000
   5.0700    0.4274E+000
   5.0775    0.4280E+000
   5.0850    0.4287E+000
   5.0925    0.4294E+000
   5.1001    0.4301E+000
   5.1076    0.4309E+000
   5.1151    0.4316E+000
   5.1226    0.4324E+000
   5.1301    0.4331E+000
   5.1376    0.4339E+000
   5.1451    0.4347E+000
   5.1526    0.4355E+000
   5.1601    0.4363E+000
   5.1676    0.4371E+000
   5.1751    0.4380E+000
   5.1826    0.4388E+000
   5.1901    0.4397E+000
   5.1976    0.4406E+000
   5.2051    0.4415E+000
   5.2126    0.4424E+000
   5.2201    0.4433E+000
   5.2276    0.4443E+000
   5.2351    0.4452E+000
   5.2426    0.4462E+000
   5.2501    0.4472E+000
   5.2576    0.4482E+000
   5.2651    0.4492E+000
   5.2726    0.4503E+000
   5.2801    0.4513E+000
   5.2876    0.4524E+000
   5.2951    0.4535E+000
   5.3027    0.4546E+000
   5.3102    0.4557E+000
   5.3177    0.4569E+000
   5.3252    0.4580E+000
   5.3327    0.4592E+000
   5.3402    0.4604E+000
   5.3477    0.4616E+000
   5.3552    0.4629E+000
   5.3627    0.4641E+000
   5.3702    0.4654E+000
   5.3777    0.4667E+000
   5.3852    0.4680E+000
   5.3927    0.4693E+000
   5.4002    0.4707E+000
   5.4077    0.4721E+000
   5.4152    0.4735E+000
   5.4227    0.4749E+000
   5.4302    0.4764E+000
   5.4377    0.4778E+000
   5.4452    0.4793E+000
   5.4527    0.4808E+000
   5.4602    0.4824E+000
   5.4677    0.4839E+000
   5.4752    0.4855E+000
   5.4827    0.4872E+000
   5.4902    0.4888E+000
   5.4977    0.4905E+000
   5.5053    0.4922E+000
   5.5128    0.4939E+000
   5.5203    0.4956E+000
   5.5278    0.4974E+000
   5.5353    0.4992E+000
   5.5428    0.5011E+000
   5.5503    0.5030E+000
   5.5578    0.5049E+000
   5.5653    0.5068E+000
   5.5728    0.5088E+000
   5.5803    0.5108E+000
   5.5878    0.5128E+000
   5.5953    0.5149E+000
   5.6028    0.5170E+000
   5.6103    0.5191E+000
   5.6178    0.5213E+000
   5.6253    0.5236E+000
   5.6328    0.5258E+000
   5.6403    0.5281E+000
   5.6478    0.5305E+000
   5.6553    0.5328E+000
   5.6628    0.5353E+000
   5.6703    0.5377E+000
   5.6778    0.5403E+000
   5.6853    0.5428E+000
   5.6928    0.5455E+000
   5.7004    0.5481E+000
   5.7079    0.5508E+000
   5.7154    0.5536E+000
   5.7229    0.5564E+000
   5.7304    0.5593E+000
   5.7379    0.5623E+000
   5.7454    0.5653E+000
   5.7529    0.5683E+000
   5.7604    0.5715E+000
   5.7679    0.5747E+000
   5.7754    0.5779E+000
   5.7829    0.5813E+000
   5.7904    0.5847E+000
   5.7979    0.5882E+000
   5.8054    0.5917E+000
   5.8129    0.5954E+000
   5.8204    0.5991E+000
   5.8279    0.6029E+000
   5.8354    0.6068E+000
   5.8429    0.6109E+000
   5.8504    0.6150E+000
   5.8579    0.6192E+000
   5.8654    0.6235E+000
   5.8729    0.6280E+000
   5.8804    0.6325E+000
   5.8879    0.6372E+000
   5.8954    0.6420E+000
   5.9030    0.6470E+000
   5.9105    0.6521E+000
   5.9180    0.6574E+000
   5.9255    0.6628E+000
   5.9330    0.6684E+000
   5.9405    0.6742E+000
   5.9480    0.6801E+000
   5.9555    0.6863E+000
   5.9630    0.6926E+000
   5.9705    0.6992E+000
   5.9780    0.7061E+000
   5.9855    0.7132E+000
   5.9930    0.7205E+000
   6.0005    0.7282E+000
   6.0080    0.7362E+000
   6.0155    0.7444E+000
   6.0230    0.7531E+000
   6.0305    0.7621E+000
   6.0380    0.7716E+000
   6.0455    0.7815E+000
   6.0530    0.7919E+000
   6.0605    0.8028E+000
   6.0680    0.8143E+000
   6.0755    0.8264E+000
   6.0830    0.8392E+000
   6.0905    0.8527E+000
   6.0980    0.8671E+000
   6.1056    0.8825E+000
   6.1131    0.8989E+000
   6.1206    0.9165E+000
   6.1281    0.9354E+000
   6.1356    0.9559E+000
   6.1431    0.9782E+000
   6.1506    0.1003E+001
   6.1581    0.1029E+001
   6.1656    0.1059E+001
   6.1731    0.1093E+001
   6.1806    0.1131E+001
   6.1881    0.1174E+001
   6.1956    0.1225E+001
   6.2031    0.1283E+001
   6.2106    0.1350E+001
   6.2181    0.1427E+001
   6.2256    0.1513E+001
   6.2331    0.1606E+001
   6.2406    0.1701E+001
   6.2481    0.1794E+001
   6.2556    0.1873E+001
   6.2631    0.1930E+001
   6.2706    0.1954E+001
   6.2781    0.1936E+001
   6.2856    0.1870E+001
   6.2931    0.1757E+001
   6.3007    0.1600E+001
   6.3082    0.1409E+001
   6.3157    0.1199E+001
   6.3232    0.9832E+000
   6.3307    0.7765E+000
   6.3382    0.5899E+000
   6.3457    0.4307E+000
   6.3532    0.3020E+000
   6.3607    0.2033E+000
   6.3682    0.1312E+000
   6.3757    0.8126E-001
   6.3832    0.4822E-001
   6.3907    0.2743E-001
   6.3982    0.1494E-001
   6.4057    0.7797E-002
   6.4132    0.3897E-002
   6.4207    0.1864E-002
   6.4282    0.8540E-003
   6.4357    0.3744E-003
   6.4432    0.1571E-003
   6.4507    0.6310E-004
   6.4582    0.2425E-004
   6.4657    0.8917E-005
   6.4732    0.3137E-005
   6.4807    0.1056E-005
   6.4882    0.3400E-006
   6.4957    0.1047E-006
   6.5033    0.3086E-007
   6.5108    0.8697E-008
   6.5183    0.2345E-008
   6.5258    0.6045E-009
   6.5333    0.1491E-009
   6.5408    0.3516E-010
   6.5483    0.7932E-011
   6.5558    0.1711E-011
   6.5633    0.3530E-012
   6.5708    0.6964E-013
   6.5783    0.1314E-013
   6.5858    0.2371E-014
   6.5933    0.4090E-015
   6.6008    0.6747E-016
   6.6083    0.1064E-016
   6.6158    0.1606E-017
   6.6233    0.2316E-018
   6.6308    0.3195E-019
   6.6383    0.4213E-020
   6.6458    0.5313E-021
   6.6533    0.6407E-022
   6.6608    0.7386E-023
   6.6683    0.8143E-024
   6.6758    0.8582E-025
   6.6833    0.8649E-026
   6.6908    0.8334E-027
   6.6983    0.7678E-028
   6.7059    0.6764E-029
   6.7134    0.5697E-030
   6.7209    0.4587E-031
   6.7284    0.3532E-032
   6.7359    0.2600E-033
   6.7434    0.1830E-034
   6.7509    0.1231E-035
   6.7584    0.7920E-037
   6.7659    0.4871E-038
   6.7734    0.2864E-039
   6.7809    0.1610E-040
   6.7884    0.8656E-042
   6.7959    0.4449E-043
   6.8034    0.2186E-044
   6.8109    0.1027E-045
   6.8184    0.4611E-047
   6.8259    0.1980E-048
   6.8334    0.8126E-050
   6.8409    0.3189E-051
   6.8484    0.1196E-052
   6.8559    0.4292E-054
   6.8634    0.1472E-055
   6.8709    0.4825E-057
   6.8784    0.1512E-058
   6.8859    0.4532E-060
   6.8934    0.1298E-061
   6.9010    0.3556E-063
   6.9085    0.9311E-065
   6.9160    0.2331E-066
   6.9235    0.5578E-068
   6.9310    0.1276E-069
   6.9385    0.2792E-071
   6.9460    0.5838E-073
   6.9535    0.1167E-074
   6.9610    0.2231E-076
   6.9685    0.4076E-078
   6.9760    0.7119E-080
   6.9835    0.1189E-081
   6.9910    0.1898E-083
   6.9985    0.2897E-085
   7.0060    0.4227E-087
   7.0135    0.5896E-089
   7.0210    0.7863E-091
   7.0285    0.1002E-092
   7.0360    0.1222E-094
   7.0435    0.1424E-096
   7.0510    0.1586E-098
   7.0585    0.1689E-100
   7.0660    0.1719E-102
   7.0735    0.1673E-104
   7.0810    0.1557E-106
   7.0885    0.1385E-108
   7.0960    0.1178E-110
   7.1036    0.9573E-113
   7.1111    0.7440E-115
   7.1186    0.5528E-117
   7.1261    0.3926E-119
   7.1336    0.2666E-121
   7.1411    0.1731E-123
   7.1486    0.1074E-125
   7.1561    0.6371E-128
   7.1636    0.3613E-130
   7.1711    0.1959E-132
   7.1786    0.1015E-134
   7.1861    0.5032E-137
   7.1936    0.2383E-139
   7.2011    0.1079E-141
   7.2086    0.4673E-144
   7.2161    0.1934E-146
   7.2236    0.7652E-149
   7.2311    0.2894E-151
   7.2386    0.1047E-153
   7.2461    0.3618E-156
   7.2536    0.1195E-158
   7.2611    0.3777E-161
   7.2686    0.1141E-163
   7.2761    0.3293E-166
   7.2836    0.9089E-169
   7.2911    0.2398E-171
   7.2986    0.6049E-174
   7.3062    0.1459E-176
   7.3137    0.3363E-179
   7.3212    0.7411E-182
   7.3287    0.1561E-184
   7.3362    0.3144E-187
   7.3437    0.6054E-190
   7.3512    0.1114E-192
   7.3587    0.1961E-195
   7.3662    0.3298E-198
   7.3737    0.5304E-201
   7.3812    0.8154E-204
   7.3887    0.1198E-206
   7.3962    0.1683E-209
   7.4037    0.2261E-212
   7.4112    0.2903E-215
   7.4187    0.3563E-218
   7.4262    0.4181E-221
   7.4337    0.4690E-224
   7.4412    0.5029E-227
   7.4487    0.5155E-230
   7.4562    0.5052E-233
   7.4637    0.4733E-236
   7.4712    0.4239E-239
   7.4787    0.3629E-242
   7.4862    0.2971E-245
   7.4937    0.2324E-248
   7.5013    0.1739E-251
   7.5088    0.1243E-254
   7.5163    0.8498E-258
   7.5238    0.5553E-261
   7.5313    0.3469E-264
   7.5388    0.2072E-267
   7.5463    0.1183E-270
   7.5538    0.6456E-274
   7.5613    0.3368E-277
   7.5688    0.1680E-280
   7.5763    0.8011E-284
   7.5838    0.3652E-287
   7.5913    0.1591E-290
   7.5988    0.6628E-294
   7.6063    0.2640E-297
   7.6138    0.1005E-300
   7.6213    0.3655E-304
   7.6288    0.0000E+000
   7.6363    0.0000E+000
   7.6438    0.0000E+000
   7.6513    0.0000E+000
   7.6588    0.0000E+000
   7.6663    0.0000E+000
   7.6738    0.0000E+000
   7.6813    0.0000E+000
   7.6888    0.0000E+000
   7.6963    0.0000E+000
   7.7039    0.0000E+000
   7.7114    0.0000E+000
   7.7189    0.0000E+000
   7.7264    0.0000E+000
   7.7339    0.0000E+000
   7.7414    0.0000E+000
   7.7489    0.0000E+000
   7.7564    0.0000E+000
   7.7639    0.0000E+000
   7.7714    0.0000E+000
   7.7789    0.0000E+000
   7.7864    0.0000E+000
   7.7939    0.0000E+000
   7.8014    0.0000E+000
   7.8089    0.0000E+000
   7.8164    0.0000E+000
   7.8239    0.0000E+000
   7.8314    0.0000E+000
   7.8389    0.0000E+000
   7.8464    0.0000E+000
   7.8539    0.0000E+000
   7.8614    0.0000E+000
   7.8689    0.0000E+000
   7.8764    0.0000E+000
   7.8839    0.0000E+000
   7.8914    0.0000E+000
   7.8989    0.0000E+000
   7.9065    0.0000E+000
   7.9140    0.0000E+000
   7.9215    0.0000E+000
   7.9290    0.0000E+000
   7.9365    0.0000E+000
   7.9440    0.0000E+000
   7.9515    0.0000E+000
   7.9590    0.0000E+000
   7.9665    0.0000E+000
   7.9740    0.0000E+000
   7.9815    0.0000E+000
   7.9890    0.0000E+000
   7.9965    0.0000E+000
   8.0040    0.0000E+000
   8.0115    0.0000E+000
   8.0190    0.0000E+000
   8.0265    0.0000E+000
   8.0340    0.0000E+000
   8.0415    0.0000E+000
   8.0490    0.0000E+000
   8.0565    0.0000E+000
   8.0640    0.0000E+000
   8.0715    0.0000E+000
   8.0790    0.0000E+000
   8.0865    0.0000E+000
   8.0940    0.0000E+000
   8.1016    0.0000E+000
   8.1091    0.0000E+000
   8.1166    0.0000E+000
   8.1241    0.0000E+000
   8.1316    0.0000E+000
   8.1391    0.0000E+000
   8.1466    0.0000E+000
   8.1541    0.0000E+000
   8.1616    0.0000E+000
   8.1691    0.0000E+000
   8.1766    0.0000E+000
   8.1841    0.0000E+000
   8.1916    0.0000E+000
   8.1991    0.0000E+000
   8.2066    0.0000E+000
   8.2141    0.0000E+000
   8.2216    0.0000E+000
   8.2291    0.0000E+000
   8.2366    0.0000E+000
   8.2441    0.0000E+000
   8.2516    0.0000E+000
   8.2591    0.0000E+000
   8.2666    0.0000E+000
   8.2741    0.0000E+000
   8.2816    0.0000E+000
   8.2891    0.0000E+000
   8.2966    0.0000E+000
   8.3042    0.0000E+000
   8.3117    0.0000E+000
   8.3192    0.0000E+000
   8.3267    0.0000E+000
   8.3342    0.0000E+000
   8.3417    0.0000E+000
   8.3492    0.0000E+000
   8.3567    0.0000E+000
   8.3642    0.0000E+000
   8.3717    0.0000E+000
   8.3792    0.0000E+000
   8.3867    0.0000E+000
   8.3942    0.0000E+000
   8.4017    0.0000E+000
   8.4092    0.0000E+000
   8.4167    0.0000E+000
   8.4242    0.0000E+000
   8.4317    0.0000E+000
   8.4392    0.0000E+000
   8.4467    0.0000E+000
   8.4542    0.0000E+000
   8.4617    0.0000E+000
   8.4692    0.0000E+000
   8.4767    0.0000E+000
   8.4842    0.0000E+000
   8.4917    0.0000E+000
   8.4992    0.0000E+000
   8.5068    0.0000E+000
   8.5143    0.0000E+000
   8.5218    0.0000E+000
   8.5293    0.0000E+000
   8.5368    0.0000E+000
   8.5443    0.0000E+000
   8.5518    0.0000E+000
   8.5593    0.0000E+000
   8.5668    0.0000E+000
   8.5743    0.0000E+000
   8.5818    0.0000E+000
   8.5893    0.0000E+000
   8.5968    0.0000E+000
   8.6043    0.0000E+000
   8.6118    0.0000E+000
   8.6193    0.0000E+000
   8.6268    0.0000E+000
   8.6343    0.0000E+000
   8.6418    0.0000E+000
   8.6493    0.0000E+000
   8.6568    0.0000E+000
   8.6643    0.0000E+000
   8.6718    0.0000E+000
   8.6793    0.0000E+000
   8.6868    0.0000E+000
   8.6943    0.0000E+000
   8.7019    0.0000E+000
   8.7094    0.0000E+000
   8.7169    0.0000E+000
   8.7244    0.0000E+000
   8.7319    0.0000E+000
   8.7394    0.0000E+000
   8.7469    0.0000E+000
   8.7544    0.0000E+000
   8.7619    0.0000E+000
   8.7694    0.0000E+000
   8.7769    0.0000E+000
   8.7844    0.0000E+000
   8.7919    0.0000E+000
   8.7994    0.0000E+000
   8.8069    0.0000E+000
   8.8144    0.0000E+000
   8.8219    0.0000E+000
   8.8294    0.0000E+000
   8.8369    0.0000E+000
   8.8444    0.0000E+000
   8.8519    0.0000E+000
   8.8594    0.0000E+000
   8.8669    0.0000E+000
   8.8744    0.0000E+000
   8.8819    0.0000E+000
   8.8894    0.0000E+000
   8.8969    0.0000E+000
   8.9045    0.0000E+000
   8.9120    0.0000E+000
   8.9195    0.0000E+000
   8.9270    0.0000E+000
   8.9345    0.0000E+000
   8.9420    0.0000E+000
   8.9495    0.0000E+000
   8.9570    0.0000E+000
   8.9645    0.0000E+000
   8.9720    0.0000E+000
   8.9795    0.0000E+000
   8.9870    0.0000E+000
   8.9945    0.0000E+000
   9.0020    0.0000E+000
   9.0095    0.0000E+000
   9.0170    0.0000E+000
   9.0245    0.0000E+000
   9.0320    0.0000E+000
   9.0395    0.0000E+000
   9.0470    0.0000E+000
   9.0545    0.0000E+000
   9.0620    0.0000E+000
   9.0695    0.0000E+000
   9.0770    0.0000E+000
   9.0845    0.0000E+000
   9.0920    0.0000E+000
   9.0995    0.0000E+000
   9.1071    0.0000E+000
   9.1146    0.0000E+000
   9.1221    0.0000E+000
   9.1296    0.0000E+000
   9.1371    0.0000E+000
   9.1446    0.0000E+000
   9.1521    0.0000E+000
   9.1596    0.0000E+000
   9.1671    0.0000E+000
   9.1746    0.0000E+000
   9.1821    0.0000E+000
   9.1896    0.0000E+000
   9.1971    0.0000E+000
   9.2046    0.0000E+000
   9.2121    0.0000E+000
   9.2196    0.0000E+000
   9.2271    0.0000E+000
   9.2346    0.0000E+000
   9.2421    0.0000E+000
   9.2496    0.0000E+000
   9.2571    0.0000E+000
   9.2646    0.0000E+000
   9.2721    0.0000E+000
   9.2796    0.0000E+000
   9.2871    0.0000E+000
   9.2946    0.0000E+000
   9.3022    0.0000E+000
   9.3097    0.0000E+000
   9.3172    0.0000E+000
   9.3247    0.0000E+000
   9.3322    0.0000E+000
   9.3397    0.0000E+000
   9.3472    0.0000E+000
   9.3547    0.0000E+000
   9.3622    0.0000E+000
   9.3697    0.0000E+000
   9.3772    0.0000E+000
   9.3847    0.0000E+000
   9.3922    0.0000E+000
   9.3997    0.0000E+000
   9.4072    0.0000E+000
   9.4147    0.0000E+000
   9.4222    0.0000E+000
   9.4297    0.0000E+000
   9.4372    0.0000E+000
   9.4447    0.0000E+000
   9.4522    0.0000E+000
   9.4597    0.0000E+000
   9.4672    0.0000E+000
   9.4747    0.0000E+000
   9.4822    0.0000E+000
   9.4897    0.0000E+000
   9.4972    0.0000E+000
   9.5048    0.0000E+000
   9.5123    0.0000E+000
   9.5198    0.0000E+000
   9.5273    0.0000E+000
   9.5348    0.0000E+000
   9.5423    0.0000E+000
   9.5498    0.0000E+000
   9.5573    0.0000E+000
   9.5648    0.0000E+000
   9.5723    0.0000E+000
   9.5798    0.0000E+000
   9.5873    0.0000E+000
   9.5948    0.0000E+000
   9.6023    0.0000E+000
   9.6098    0.0000E+000
   9.6173    0.0000E+000
   9.6248    0.0000E+000
   9.6323    0.0000E+000
   9.6398    0.0000E+000
   9.6473    0.0000E+000
   9.6548    0.0000E+000
   9.6623    0.0000E+000
   9.6698    0.0000E+000
   9.6773    0.0000E+000
   9.6848    0.0000E+000
   9.6923    0.0000E+000
   9.6998    0.0000E+000
   9.7074    0.0000E+000
   9.7149    0.0000E+000
   9.7224    0.0000E+000
   9.7299    0.0000E+000
   9.7374    0.0000E+000
   9.7449    0.0000E+000
   9.7524    0.0000E+000
   9.7599    0.0000E+000
   9.7674    0.0000E+000
   9.7749    0.0000E+000
   9.7824    0.0000E+000
   9.7899    0.0000E+000
   9.7974    0.0000E+000
   9.8049    0.0000E+000
   9.8124    0.0000E+000
   9.8199    0.0000E+000
   9.8274    0.0000E+000
   9.8349    0.0000E+000
   9.8424    0.0000E+000
   9.8499    0.0000E+000
   9.8574    0.0000E+000
   9.8649    0.0000E+000
   9.8724    0.0000E+000
   9.8799    0.0000E+000
   9.8874    0.0000E+000
   9.8949    0.0000E+000
   9.9025    0.0000E+000
   9.9100    0.0000E+000
   9.9175    0.0000E+000
   9.9250    0.0000E+000
   9.9325    0.0000E+000
   9.9400    0.0000E+000
   9.9475    0.0000E+000
   9.9550    0.0000E+000
   9.9625    0.0000E+000
   9.9700    0.0000E+000
   9.9775    0.0000E+000
   9.9850    0.0000E+000
   9.9925    0.0000E+000
  10.0000    0.0000E+000
