 # E (eV)   ldos(E)
  -5.0000    0.0000E+000
  -4.9925    0.0000E+000
  -4.9850    0.0000E+000
  -4.9775    0.0000E+000
  -4.9700    0.0000E+000
  -4.9625    0.0000E+000
  -4.9550    0.0000E+000
  -4.9475    0.0000E+000
  -4.9400    0.0000E+000
  -4.9325    0.0000E+000
  -4.9250    0.0000E+000
  -4.9175    0.0000E+000
  -4.9100    0.0000E+000
  -4.9025    0.0000E+000
  -4.8949    0.0000E+000
  -4.8874    0.0000E+000
  -4.8799    0.0000E+000
  -4.8724    0.0000E+000
  -4.8649    0.0000E+000
  -4.8574    0.0000E+000
  -4.8499    0.0000E+000
  -4.8424    0.0000E+000
  -4.8349    0.0000E+000
  -4.8274    0.0000E+000
  -4.8199    0.0000E+000
  -4.8124    0.0000E+000
  -4.8049    0.0000E+000
  -4.7974    0.0000E+000
  -4.7899    0.0000E+000
  -4.7824    0.0000E+000
  -4.7749    0.0000E+000
  -4.7674    0.0000E+000
  -4.7599    0.0000E+000
  -4.7524    0.0000E+000
  -4.7449    0.0000E+000
  -4.7374    0.0000E+000
  -4.7299    0.0000E+000
  -4.7224    0.0000E+000
  -4.7149    0.0000E+000
  -4.7074    0.0000E+000
  -4.6998    0.0000E+000
  -4.6923    0.0000E+000
  -4.6848    0.0000E+000
  -4.6773    0.0000E+000
  -4.6698    0.0000E+000
  -4.6623    0.0000E+000
  -4.6548    0.0000E+000
  -4.6473    0.0000E+000
  -4.6398    0.0000E+000
  -4.6323    0.0000E+000
  -4.6248    0.0000E+000
  -4.6173    0.0000E+000
  -4.6098    0.0000E+000
  -4.6023    0.0000E+000
  -4.5948    0.0000E+000
  -4.5873    0.0000E+000
  -4.5798    0.0000E+000
  -4.5723    0.0000E+000
  -4.5648    0.0000E+000
  -4.5573    0.0000E+000
  -4.5498    0.0000E+000
  -4.5423    0.0000E+000
  -4.5348    0.0000E+000
  -4.5273    0.0000E+000
  -4.5198    0.0000E+000
  -4.5123    0.0000E+000
  -4.5048    0.0000E+000
  -4.4972    0.0000E+000
  -4.4897    0.0000E+000
  -4.4822    0.0000E+000
  -4.4747    0.0000E+000
  -4.4672    0.0000E+000
  -4.4597    0.0000E+000
  -4.4522    0.0000E+000
  -4.4447    0.0000E+000
  -4.4372    0.0000E+000
  -4.4297    0.0000E+000
  -4.4222    0.0000E+000
  -4.4147    0.0000E+000
  -4.4072    0.0000E+000
  -4.3997    0.0000E+000
  -4.3922    0.0000E+000
  -4.3847    0.3134E-304
  -4.3772    0.8688E-301
  -4.3697    0.2295E-297
  -4.3622    0.5796E-294
  -4.3547    0.1399E-290
  -4.3472    0.3230E-287
  -4.3397    0.7126E-284
  -4.3322    0.1503E-280
  -4.3247    0.3031E-277
  -4.3172    0.5842E-274
  -4.3097    0.1077E-270
  -4.3022    0.1897E-267
  -4.2946    0.3194E-264
  -4.2871    0.5142E-261
  -4.2796    0.7913E-258
  -4.2721    0.1164E-254
  -4.2646    0.1638E-251
  -4.2571    0.2202E-248
  -4.2496    0.2830E-245
  -4.2421    0.3477E-242
  -4.2346    0.4085E-239
  -4.2271    0.4587E-236
  -4.2196    0.4924E-233
  -4.2121    0.5054E-230
  -4.2046    0.4958E-227
  -4.1971    0.4650E-224
  -4.1896    0.4169E-221
  -4.1821    0.3574E-218
  -4.1746    0.2928E-215
  -4.1671    0.2294E-212
  -4.1596    0.1718E-209
  -4.1521    0.1230E-206
  -4.1446    0.8414E-204
  -4.1371    0.5505E-201
  -4.1296    0.3443E-198
  -4.1221    0.2058E-195
  -4.1146    0.1177E-192
  -4.1071    0.6429E-190
  -4.0995    0.3358E-187
  -4.0920    0.1677E-184
  -4.0845    0.8005E-182
  -4.0770    0.3653E-179
  -4.0695    0.1594E-176
  -4.0620    0.6648E-174
  -4.0545    0.2650E-171
  -4.0470    0.1010E-168
  -4.0395    0.3681E-166
  -4.0320    0.1282E-163
  -4.0245    0.4270E-161
  -4.0170    0.1359E-158
  -4.0095    0.4137E-156
  -4.0020    0.1204E-153
  -3.9945    0.3348E-151
  -3.9870    0.8902E-149
  -3.9795    0.2263E-146
  -3.9720    0.5499E-144
  -3.9645    0.1277E-141
  -3.9570    0.2837E-139
  -3.9495    0.6024E-137
  -3.9420    0.1223E-134
  -3.9345    0.2372E-132
  -3.9270    0.4400E-130
  -3.9195    0.7803E-128
  -3.9120    0.1323E-125
  -3.9045    0.2144E-123
  -3.8969    0.3322E-121
  -3.8894    0.4920E-119
  -3.8819    0.6966E-117
  -3.8744    0.9430E-115
  -3.8669    0.1220E-112
  -3.8594    0.1510E-110
  -3.8519    0.1786E-108
  -3.8444    0.2019E-106
  -3.8369    0.2182E-104
  -3.8294    0.2255E-102
  -3.8219    0.2228E-100
  -3.8144    0.2104E-098
  -3.8069    0.1900E-096
  -3.7994    0.1640E-094
  -3.7919    0.1353E-092
  -3.7844    0.1067E-090
  -3.7769    0.8049E-089
  -3.7694    0.5803E-087
  -3.7619    0.4000E-085
  -3.7544    0.2636E-083
  -3.7469    0.1660E-081
  -3.7394    0.1000E-079
  -3.7319    0.5758E-078
  -3.7244    0.3169E-076
  -3.7169    0.1668E-074
  -3.7094    0.8389E-073
  -3.7019    0.4035E-071
  -3.6943    0.1855E-069
  -3.6868    0.8155E-068
  -3.6793    0.3427E-066
  -3.6718    0.1377E-064
  -3.6643    0.5288E-063
  -3.6568    0.1942E-061
  -3.6493    0.6817E-060
  -3.6418    0.2288E-058
  -3.6343    0.7342E-057
  -3.6268    0.2252E-055
  -3.6193    0.6605E-054
  -3.6118    0.1852E-052
  -3.6043    0.4964E-051
  -3.5968    0.1272E-049
  -3.5893    0.3117E-048
  -3.5818    0.7301E-047
  -3.5743    0.1635E-045
  -3.5668    0.3501E-044
  -3.5593    0.7166E-043
  -3.5518    0.1402E-041
  -3.5443    0.2624E-040
  -3.5368    0.4694E-039
  -3.5293    0.8028E-038
  -3.5218    0.1313E-036
  -3.5143    0.2052E-035
  -3.5068    0.3067E-034
  -3.4992    0.4383E-033
  -3.4917    0.5989E-032
  -3.4842    0.7823E-031
  -3.4767    0.9771E-030
  -3.4692    0.1167E-028
  -3.4617    0.1332E-027
  -3.4542    0.1454E-026
  -3.4467    0.1518E-025
  -3.4392    0.1515E-024
  -3.4317    0.1445E-023
  -3.4242    0.1319E-022
  -3.4167    0.1150E-021
  -3.4092    0.9594E-021
  -3.4017    0.7651E-020
  -3.3942    0.5835E-019
  -3.3867    0.4254E-018
  -3.3792    0.2966E-017
  -3.3717    0.1978E-016
  -3.3642    0.1261E-015
  -3.3567    0.7685E-015
  -3.3492    0.4480E-014
  -3.3417    0.2497E-013
  -3.3342    0.1331E-012
  -3.3267    0.6786E-012
  -3.3192    0.3308E-011
  -3.3117    0.1542E-010
  -3.3042    0.6876E-010
  -3.2966    0.2932E-009
  -3.2891    0.1196E-008
  -3.2816    0.4664E-008
  -3.2741    0.1740E-007
  -3.2666    0.6209E-007
  -3.2591    0.2119E-006
  -3.2516    0.6919E-006
  -3.2441    0.2161E-005
  -3.2366    0.6457E-005
  -3.2291    0.1846E-004
  -3.2216    0.5048E-004
  -3.2141    0.1321E-003
  -3.2066    0.3308E-003
  -3.1991    0.7927E-003
  -3.1916    0.1818E-002
  -3.1841    0.3992E-002
  -3.1766    0.8390E-002
  -3.1691    0.1688E-001
  -3.1616    0.3253E-001
  -3.1541    0.6004E-001
  -3.1466    0.1062E+000
  -3.1391    0.1799E+000
  -3.1316    0.2921E+000
  -3.1241    0.4549E+000
  -3.1166    0.6796E+000
  -3.1091    0.9744E+000
  -3.1016    0.1342E+001
  -3.0940    0.1775E+001
  -3.0865    0.2259E+001
  -3.0790    0.2767E+001
  -3.0715    0.3268E+001
  -3.0640    0.3727E+001
  -3.0565    0.4109E+001
  -3.0490    0.4392E+001
  -3.0415    0.4562E+001
  -3.0340    0.4617E+001
  -3.0265    0.4571E+001
  -3.0190    0.4442E+001
  -3.0115    0.4255E+001
  -3.0040    0.4035E+001
  -2.9965    0.3804E+001
  -2.9890    0.3576E+001
  -2.9815    0.3364E+001
  -2.9740    0.3172E+001
  -2.9665    0.3002E+001
  -2.9590    0.2854E+001
  -2.9515    0.2725E+001
  -2.9440    0.2613E+001
  -2.9365    0.2514E+001
  -2.9290    0.2427E+001
  -2.9215    0.2348E+001
  -2.9140    0.2278E+001
  -2.9065    0.2213E+001
  -2.8989    0.2155E+001
  -2.8914    0.2101E+001
  -2.8839    0.2051E+001
  -2.8764    0.2004E+001
  -2.8689    0.1961E+001
  -2.8614    0.1921E+001
  -2.8539    0.1883E+001
  -2.8464    0.1848E+001
  -2.8389    0.1815E+001
  -2.8314    0.1783E+001
  -2.8239    0.1754E+001
  -2.8164    0.1726E+001
  -2.8089    0.1699E+001
  -2.8014    0.1674E+001
  -2.7939    0.1650E+001
  -2.7864    0.1627E+001
  -2.7789    0.1605E+001
  -2.7714    0.1584E+001
  -2.7639    0.1564E+001
  -2.7564    0.1545E+001
  -2.7489    0.1527E+001
  -2.7414    0.1509E+001
  -2.7339    0.1492E+001
  -2.7264    0.1475E+001
  -2.7189    0.1460E+001
  -2.7114    0.1444E+001
  -2.7039    0.1429E+001
  -2.6963    0.1415E+001
  -2.6888    0.1401E+001
  -2.6813    0.1388E+001
  -2.6738    0.1374E+001
  -2.6663    0.1362E+001
  -2.6588    0.1349E+001
  -2.6513    0.1337E+001
  -2.6438    0.1325E+001
  -2.6363    0.1314E+001
  -2.6288    0.1302E+001
  -2.6213    0.1291E+001
  -2.6138    0.1281E+001
  -2.6063    0.1270E+001
  -2.5988    0.1260E+001
  -2.5913    0.1250E+001
  -2.5838    0.1240E+001
  -2.5763    0.1230E+001
  -2.5688    0.1221E+001
  -2.5613    0.1212E+001
  -2.5538    0.1202E+001
  -2.5463    0.1194E+001
  -2.5388    0.1185E+001
  -2.5313    0.1176E+001
  -2.5238    0.1168E+001
  -2.5163    0.1160E+001
  -2.5088    0.1151E+001
  -2.5013    0.1143E+001
  -2.4937    0.1136E+001
  -2.4862    0.1128E+001
  -2.4787    0.1120E+001
  -2.4712    0.1113E+001
  -2.4637    0.1106E+001
  -2.4562    0.1099E+001
  -2.4487    0.1092E+001
  -2.4412    0.1085E+001
  -2.4337    0.1078E+001
  -2.4262    0.1071E+001
  -2.4187    0.1065E+001
  -2.4112    0.1058E+001
  -2.4037    0.1052E+001
  -2.3962    0.1046E+001
  -2.3887    0.1040E+001
  -2.3812    0.1034E+001
  -2.3737    0.1028E+001
  -2.3662    0.1022E+001
  -2.3587    0.1017E+001
  -2.3512    0.1011E+001
  -2.3437    0.1006E+001
  -2.3362    0.1000E+001
  -2.3287    0.9952E+000
  -2.3212    0.9901E+000
  -2.3137    0.9850E+000
  -2.3062    0.9800E+000
  -2.2986    0.9752E+000
  -2.2911    0.9704E+000
  -2.2836    0.9657E+000
  -2.2761    0.9611E+000
  -2.2686    0.9565E+000
  -2.2611    0.9521E+000
  -2.2536    0.9477E+000
  -2.2461    0.9434E+000
  -2.2386    0.9392E+000
  -2.2311    0.9350E+000
  -2.2236    0.9309E+000
  -2.2161    0.9269E+000
  -2.2086    0.9229E+000
  -2.2011    0.9190E+000
  -2.1936    0.9151E+000
  -2.1861    0.9114E+000
  -2.1786    0.9076E+000
  -2.1711    0.9040E+000
  -2.1636    0.9004E+000
  -2.1561    0.8968E+000
  -2.1486    0.8933E+000
  -2.1411    0.8898E+000
  -2.1336    0.8864E+000
  -2.1261    0.8831E+000
  -2.1186    0.8797E+000
  -2.1111    0.8765E+000
  -2.1036    0.8732E+000
  -2.0960    0.8700E+000
  -2.0885    0.8669E+000
  -2.0810    0.8638E+000
  -2.0735    0.8607E+000
  -2.0660    0.8577E+000
  -2.0585    0.8547E+000
  -2.0510    0.8517E+000
  -2.0435    0.8487E+000
  -2.0360    0.8458E+000
  -2.0285    0.8430E+000
  -2.0210    0.8401E+000
  -2.0135    0.8373E+000
  -2.0060    0.8345E+000
  -1.9985    0.8317E+000
  -1.9910    0.8290E+000
  -1.9835    0.8263E+000
  -1.9760    0.8236E+000
  -1.9685    0.8209E+000
  -1.9610    0.8183E+000
  -1.9535    0.8156E+000
  -1.9460    0.8130E+000
  -1.9385    0.8105E+000
  -1.9310    0.8079E+000
  -1.9235    0.8054E+000
  -1.9160    0.8028E+000
  -1.9085    0.8003E+000
  -1.9010    0.7978E+000
  -1.8934    0.7954E+000
  -1.8859    0.7929E+000
  -1.8784    0.7905E+000
  -1.8709    0.7881E+000
  -1.8634    0.7857E+000
  -1.8559    0.7833E+000
  -1.8484    0.7810E+000
  -1.8409    0.7786E+000
  -1.8334    0.7763E+000
  -1.8259    0.7740E+000
  -1.8184    0.7717E+000
  -1.8109    0.7694E+000
  -1.8034    0.7671E+000
  -1.7959    0.7649E+000
  -1.7884    0.7626E+000
  -1.7809    0.7604E+000
  -1.7734    0.7582E+000
  -1.7659    0.7560E+000
  -1.7584    0.7538E+000
  -1.7509    0.7516E+000
  -1.7434    0.7495E+000
  -1.7359    0.7474E+000
  -1.7284    0.7452E+000
  -1.7209    0.7431E+000
  -1.7134    0.7411E+000
  -1.7059    0.7390E+000
  -1.6983    0.7369E+000
  -1.6908    0.7349E+000
  -1.6833    0.7329E+000
  -1.6758    0.7308E+000
  -1.6683    0.7288E+000
  -1.6608    0.7269E+000
  -1.6533    0.7249E+000
  -1.6458    0.7229E+000
  -1.6383    0.7210E+000
  -1.6308    0.7191E+000
  -1.6233    0.7172E+000
  -1.6158    0.7153E+000
  -1.6083    0.7134E+000
  -1.6008    0.7115E+000
  -1.5933    0.7097E+000
  -1.5858    0.7079E+000
  -1.5783    0.7061E+000
  -1.5708    0.7043E+000
  -1.5633    0.7025E+000
  -1.5558    0.7007E+000
  -1.5483    0.6989E+000
  -1.5408    0.6972E+000
  -1.5333    0.6955E+000
  -1.5258    0.6938E+000
  -1.5183    0.6921E+000
  -1.5108    0.6904E+000
  -1.5033    0.6887E+000
  -1.4957    0.6871E+000
  -1.4882    0.6855E+000
  -1.4807    0.6838E+000
  -1.4732    0.6822E+000
  -1.4657    0.6806E+000
  -1.4582    0.6791E+000
  -1.4507    0.6775E+000
  -1.4432    0.6760E+000
  -1.4357    0.6744E+000
  -1.4282    0.6729E+000
  -1.4207    0.6714E+000
  -1.4132    0.6699E+000
  -1.4057    0.6684E+000
  -1.3982    0.6670E+000
  -1.3907    0.6655E+000
  -1.3832    0.6641E+000
  -1.3757    0.6627E+000
  -1.3682    0.6613E+000
  -1.3607    0.6599E+000
  -1.3532    0.6585E+000
  -1.3457    0.6571E+000
  -1.3382    0.6557E+000
  -1.3307    0.6544E+000
  -1.3232    0.6531E+000
  -1.3157    0.6517E+000
  -1.3082    0.6504E+000
  -1.3007    0.6491E+000
  -1.2931    0.6478E+000
  -1.2856    0.6466E+000
  -1.2781    0.6453E+000
  -1.2706    0.6440E+000
  -1.2631    0.6428E+000
  -1.2556    0.6415E+000
  -1.2481    0.6403E+000
  -1.2406    0.6391E+000
  -1.2331    0.6379E+000
  -1.2256    0.6367E+000
  -1.2181    0.6355E+000
  -1.2106    0.6343E+000
  -1.2031    0.6332E+000
  -1.1956    0.6320E+000
  -1.1881    0.6308E+000
  -1.1806    0.6297E+000
  -1.1731    0.6286E+000
  -1.1656    0.6274E+000
  -1.1581    0.6263E+000
  -1.1506    0.6252E+000
  -1.1431    0.6241E+000
  -1.1356    0.6230E+000
  -1.1281    0.6219E+000
  -1.1206    0.6208E+000
  -1.1131    0.6197E+000
  -1.1056    0.6187E+000
  -1.0980    0.6176E+000
  -1.0905    0.6165E+000
  -1.0830    0.6155E+000
  -1.0755    0.6144E+000
  -1.0680    0.6134E+000
  -1.0605    0.6123E+000
  -1.0530    0.6113E+000
  -1.0455    0.6103E+000
  -1.0380    0.6093E+000
  -1.0305    0.6082E+000
  -1.0230    0.6072E+000
  -1.0155    0.6062E+000
  -1.0080    0.6052E+000
  -1.0005    0.6042E+000
  -0.9930    0.6032E+000
  -0.9855    0.6022E+000
  -0.9780    0.6012E+000
  -0.9705    0.6002E+000
  -0.9630    0.5993E+000
  -0.9555    0.5983E+000
  -0.9480    0.5973E+000
  -0.9405    0.5963E+000
  -0.9330    0.5954E+000
  -0.9255    0.5944E+000
  -0.9180    0.5934E+000
  -0.9105    0.5925E+000
  -0.9030    0.5915E+000
  -0.8954    0.5906E+000
  -0.8879    0.5896E+000
  -0.8804    0.5887E+000
  -0.8729    0.5877E+000
  -0.8654    0.5868E+000
  -0.8579    0.5858E+000
  -0.8504    0.5849E+000
  -0.8429    0.5840E+000
  -0.8354    0.5830E+000
  -0.8279    0.5821E+000
  -0.8204    0.5812E+000
  -0.8129    0.5803E+000
  -0.8054    0.5793E+000
  -0.7979    0.5784E+000
  -0.7904    0.5775E+000
  -0.7829    0.5766E+000
  -0.7754    0.5757E+000
  -0.7679    0.5748E+000
  -0.7604    0.5739E+000
  -0.7529    0.5729E+000
  -0.7454    0.5720E+000
  -0.7379    0.5711E+000
  -0.7304    0.5703E+000
  -0.7229    0.5694E+000
  -0.7154    0.5685E+000
  -0.7079    0.5676E+000
  -0.7004    0.5667E+000
  -0.6928    0.5658E+000
  -0.6853    0.5649E+000
  -0.6778    0.5640E+000
  -0.6703    0.5632E+000
  -0.6628    0.5623E+000
  -0.6553    0.5614E+000
  -0.6478    0.5606E+000
  -0.6403    0.5597E+000
  -0.6328    0.5588E+000
  -0.6253    0.5580E+000
  -0.6178    0.5571E+000
  -0.6103    0.5563E+000
  -0.6028    0.5554E+000
  -0.5953    0.5546E+000
  -0.5878    0.5537E+000
  -0.5803    0.5529E+000
  -0.5728    0.5521E+000
  -0.5653    0.5512E+000
  -0.5578    0.5504E+000
  -0.5503    0.5496E+000
  -0.5428    0.5487E+000
  -0.5353    0.5479E+000
  -0.5278    0.5471E+000
  -0.5203    0.5463E+000
  -0.5128    0.5455E+000
  -0.5053    0.5447E+000
  -0.4977    0.5439E+000
  -0.4902    0.5431E+000
  -0.4827    0.5423E+000
  -0.4752    0.5415E+000
  -0.4677    0.5407E+000
  -0.4602    0.5399E+000
  -0.4527    0.5392E+000
  -0.4452    0.5384E+000
  -0.4377    0.5376E+000
  -0.4302    0.5369E+000
  -0.4227    0.5361E+000
  -0.4152    0.5353E+000
  -0.4077    0.5346E+000
  -0.4002    0.5338E+000
  -0.3927    0.5331E+000
  -0.3852    0.5323E+000
  -0.3777    0.5316E+000
  -0.3702    0.5309E+000
  -0.3627    0.5302E+000
  -0.3552    0.5294E+000
  -0.3477    0.5287E+000
  -0.3402    0.5280E+000
  -0.3327    0.5273E+000
  -0.3252    0.5266E+000
  -0.3177    0.5259E+000
  -0.3102    0.5252E+000
  -0.3027    0.5245E+000
  -0.2951    0.5238E+000
  -0.2876    0.5231E+000
  -0.2801    0.5225E+000
  -0.2726    0.5218E+000
  -0.2651    0.5211E+000
  -0.2576    0.5204E+000
  -0.2501    0.5198E+000
  -0.2426    0.5191E+000
  -0.2351    0.5185E+000
  -0.2276    0.5178E+000
  -0.2201    0.5172E+000
  -0.2126    0.5165E+000
  -0.2051    0.5159E+000
  -0.1976    0.5153E+000
  -0.1901    0.5147E+000
  -0.1826    0.5140E+000
  -0.1751    0.5134E+000
  -0.1676    0.5128E+000
  -0.1601    0.5122E+000
  -0.1526    0.5116E+000
  -0.1451    0.5110E+000
  -0.1376    0.5104E+000
  -0.1301    0.5098E+000
  -0.1226    0.5092E+000
  -0.1151    0.5086E+000
  -0.1076    0.5080E+000
  -0.1001    0.5075E+000
  -0.0925    0.5069E+000
  -0.0850    0.5063E+000
  -0.0775    0.5057E+000
  -0.0700    0.5052E+000
  -0.0625    0.5046E+000
  -0.0550    0.5041E+000
  -0.0475    0.5035E+000
  -0.0400    0.5030E+000
  -0.0325    0.5024E+000
  -0.0250    0.5019E+000
  -0.0175    0.5013E+000
  -0.0100    0.5008E+000
  -0.0025    0.5003E+000
   0.0050    0.4997E+000
   0.0125    0.4992E+000
   0.0200    0.4987E+000
   0.0275    0.4982E+000
   0.0350    0.4977E+000
   0.0425    0.4972E+000
   0.0500    0.4966E+000
   0.0575    0.4961E+000
   0.0650    0.4956E+000
   0.0725    0.4951E+000
   0.0800    0.4946E+000
   0.0875    0.4941E+000
   0.0950    0.4936E+000
   0.1026    0.4931E+000
   0.1101    0.4927E+000
   0.1176    0.4922E+000
   0.1251    0.4917E+000
   0.1326    0.4912E+000
   0.1401    0.4907E+000
   0.1476    0.4902E+000
   0.1551    0.4898E+000
   0.1626    0.4893E+000
   0.1701    0.4888E+000
   0.1776    0.4883E+000
   0.1851    0.4879E+000
   0.1926    0.4874E+000
   0.2001    0.4869E+000
   0.2076    0.4865E+000
   0.2151    0.4860E+000
   0.2226    0.4856E+000
   0.2301    0.4851E+000
   0.2376    0.4846E+000
   0.2451    0.4842E+000
   0.2526    0.4837E+000
   0.2601    0.4833E+000
   0.2676    0.4828E+000
   0.2751    0.4824E+000
   0.2826    0.4819E+000
   0.2901    0.4815E+000
   0.2976    0.4810E+000
   0.3052    0.4806E+000
   0.3127    0.4801E+000
   0.3202    0.4797E+000
   0.3277    0.4792E+000
   0.3352    0.4788E+000
   0.3427    0.4784E+000
   0.3502    0.4779E+000
   0.3577    0.4775E+000
   0.3652    0.4770E+000
   0.3727    0.4766E+000
   0.3802    0.4762E+000
   0.3877    0.4757E+000
   0.3952    0.4753E+000
   0.4027    0.4749E+000
   0.4102    0.4744E+000
   0.4177    0.4740E+000
   0.4252    0.4736E+000
   0.4327    0.4731E+000
   0.4402    0.4727E+000
   0.4477    0.4723E+000
   0.4552    0.4718E+000
   0.4627    0.4714E+000
   0.4702    0.4710E+000
   0.4777    0.4705E+000
   0.4852    0.4701E+000
   0.4927    0.4697E+000
   0.5003    0.4693E+000
   0.5078    0.4688E+000
   0.5153    0.4684E+000
   0.5228    0.4680E+000
   0.5303    0.4676E+000
   0.5378    0.4671E+000
   0.5453    0.4667E+000
   0.5528    0.4663E+000
   0.5603    0.4659E+000
   0.5678    0.4654E+000
   0.5753    0.4650E+000
   0.5828    0.4646E+000
   0.5903    0.4642E+000
   0.5978    0.4637E+000
   0.6053    0.4633E+000
   0.6128    0.4629E+000
   0.6203    0.4625E+000
   0.6278    0.4621E+000
   0.6353    0.4616E+000
   0.6428    0.4612E+000
   0.6503    0.4608E+000
   0.6578    0.4604E+000
   0.6653    0.4600E+000
   0.6728    0.4595E+000
   0.6803    0.4591E+000
   0.6878    0.4587E+000
   0.6953    0.4583E+000
   0.7029    0.4579E+000
   0.7104    0.4575E+000
   0.7179    0.4571E+000
   0.7254    0.4567E+000
   0.7329    0.4562E+000
   0.7404    0.4558E+000
   0.7479    0.4554E+000
   0.7554    0.4550E+000
   0.7629    0.4546E+000
   0.7704    0.4542E+000
   0.7779    0.4538E+000
   0.7854    0.4534E+000
   0.7929    0.4530E+000
   0.8004    0.4526E+000
   0.8079    0.4522E+000
   0.8154    0.4518E+000
   0.8229    0.4514E+000
   0.8304    0.4510E+000
   0.8379    0.4506E+000
   0.8454    0.4502E+000
   0.8529    0.4498E+000
   0.8604    0.4494E+000
   0.8679    0.4490E+000
   0.8754    0.4486E+000
   0.8829    0.4482E+000
   0.8904    0.4478E+000
   0.8979    0.4475E+000
   0.9055    0.4471E+000
   0.9130    0.4467E+000
   0.9205    0.4463E+000
   0.9280    0.4459E+000
   0.9355    0.4455E+000
   0.9430    0.4452E+000
   0.9505    0.4448E+000
   0.9580    0.4444E+000
   0.9655    0.4440E+000
   0.9730    0.4437E+000
   0.9805    0.4433E+000
   0.9880    0.4429E+000
   0.9955    0.4426E+000
   1.0030    0.4422E+000
   1.0105    0.4418E+000
   1.0180    0.4415E+000
   1.0255    0.4411E+000
   1.0330    0.4408E+000
   1.0405    0.4404E+000
   1.0480    0.4400E+000
   1.0555    0.4397E+000
   1.0630    0.4393E+000
   1.0705    0.4390E+000
   1.0780    0.4386E+000
   1.0855    0.4383E+000
   1.0930    0.4380E+000
   1.1006    0.4376E+000
   1.1081    0.4373E+000
   1.1156    0.4369E+000
   1.1231    0.4366E+000
   1.1306    0.4363E+000
   1.1381    0.4359E+000
   1.1456    0.4356E+000
   1.1531    0.4353E+000
   1.1606    0.4350E+000
   1.1681    0.4346E+000
   1.1756    0.4343E+000
   1.1831    0.4340E+000
   1.1906    0.4337E+000
   1.1981    0.4334E+000
   1.2056    0.4331E+000
   1.2131    0.4327E+000
   1.2206    0.4324E+000
   1.2281    0.4321E+000
   1.2356    0.4318E+000
   1.2431    0.4315E+000
   1.2506    0.4312E+000
   1.2581    0.4309E+000
   1.2656    0.4306E+000
   1.2731    0.4303E+000
   1.2806    0.4301E+000
   1.2881    0.4298E+000
   1.2956    0.4295E+000
   1.3032    0.4292E+000
   1.3107    0.4289E+000
   1.3182    0.4286E+000
   1.3257    0.4284E+000
   1.3332    0.4281E+000
   1.3407    0.4278E+000
   1.3482    0.4275E+000
   1.3557    0.4273E+000
   1.3632    0.4270E+000
   1.3707    0.4267E+000
   1.3782    0.4265E+000
   1.3857    0.4262E+000
   1.3932    0.4259E+000
   1.4007    0.4257E+000
   1.4082    0.4254E+000
   1.4157    0.4252E+000
   1.4232    0.4249E+000
   1.4307    0.4247E+000
   1.4382    0.4244E+000
   1.4457    0.4242E+000
   1.4532    0.4239E+000
   1.4607    0.4237E+000
   1.4682    0.4235E+000
   1.4757    0.4232E+000
   1.4832    0.4230E+000
   1.4907    0.4227E+000
   1.4982    0.4225E+000
   1.5058    0.4223E+000
   1.5133    0.4220E+000
   1.5208    0.4218E+000
   1.5283    0.4216E+000
   1.5358    0.4214E+000
   1.5433    0.4211E+000
   1.5508    0.4209E+000
   1.5583    0.4207E+000
   1.5658    0.4205E+000
   1.5733    0.4203E+000
   1.5808    0.4200E+000
   1.5883    0.4198E+000
   1.5958    0.4196E+000
   1.6033    0.4194E+000
   1.6108    0.4192E+000
   1.6183    0.4190E+000
   1.6258    0.4188E+000
   1.6333    0.4186E+000
   1.6408    0.4184E+000
   1.6483    0.4182E+000
   1.6558    0.4180E+000
   1.6633    0.4178E+000
   1.6708    0.4176E+000
   1.6783    0.4174E+000
   1.6858    0.4172E+000
   1.6933    0.4170E+000
   1.7009    0.4168E+000
   1.7084    0.4166E+000
   1.7159    0.4164E+000
   1.7234    0.4162E+000
   1.7309    0.4160E+000
   1.7384    0.4158E+000
   1.7459    0.4156E+000
   1.7534    0.4154E+000
   1.7609    0.4152E+000
   1.7684    0.4151E+000
   1.7759    0.4149E+000
   1.7834    0.4147E+000
   1.7909    0.4145E+000
   1.7984    0.4143E+000
   1.8059    0.4141E+000
   1.8134    0.4139E+000
   1.8209    0.4138E+000
   1.8284    0.4136E+000
   1.8359    0.4134E+000
   1.8434    0.4132E+000
   1.8509    0.4130E+000
   1.8584    0.4129E+000
   1.8659    0.4127E+000
   1.8734    0.4125E+000
   1.8809    0.4123E+000
   1.8884    0.4121E+000
   1.8959    0.4120E+000
   1.9035    0.4118E+000
   1.9110    0.4116E+000
   1.9185    0.4114E+000
   1.9260    0.4113E+000
   1.9335    0.4111E+000
   1.9410    0.4109E+000
   1.9485    0.4107E+000
   1.9560    0.4106E+000
   1.9635    0.4104E+000
   1.9710    0.4102E+000
   1.9785    0.4100E+000
   1.9860    0.4098E+000
   1.9935    0.4097E+000
   2.0010    0.4095E+000
   2.0085    0.4093E+000
   2.0160    0.4091E+000
   2.0235    0.4090E+000
   2.0310    0.4088E+000
   2.0385    0.4086E+000
   2.0460    0.4084E+000
   2.0535    0.4083E+000
   2.0610    0.4081E+000
   2.0685    0.4079E+000
   2.0760    0.4078E+000
   2.0835    0.4076E+000
   2.0910    0.4074E+000
   2.0985    0.4072E+000
   2.1061    0.4071E+000
   2.1136    0.4069E+000
   2.1211    0.4067E+000
   2.1286    0.4065E+000
   2.1361    0.4063E+000
   2.1436    0.4062E+000
   2.1511    0.4060E+000
   2.1586    0.4058E+000
   2.1661    0.4056E+000
   2.1736    0.4055E+000
   2.1811    0.4053E+000
   2.1886    0.4051E+000
   2.1961    0.4049E+000
   2.2036    0.4048E+000
   2.2111    0.4046E+000
   2.2186    0.4044E+000
   2.2261    0.4042E+000
   2.2336    0.4041E+000
   2.2411    0.4039E+000
   2.2486    0.4037E+000
   2.2561    0.4035E+000
   2.2636    0.4034E+000
   2.2711    0.4032E+000
   2.2786    0.4030E+000
   2.2861    0.4028E+000
   2.2936    0.4027E+000
   2.3012    0.4025E+000
   2.3087    0.4023E+000
   2.3162    0.4021E+000
   2.3237    0.4019E+000
   2.3312    0.4018E+000
   2.3387    0.4016E+000
   2.3462    0.4014E+000
   2.3537    0.4012E+000
   2.3612    0.4011E+000
   2.3687    0.4009E+000
   2.3762    0.4007E+000
   2.3837    0.4005E+000
   2.3912    0.4004E+000
   2.3987    0.4002E+000
   2.4062    0.4000E+000
   2.4137    0.3998E+000
   2.4212    0.3997E+000
   2.4287    0.3995E+000
   2.4362    0.3993E+000
   2.4437    0.3992E+000
   2.4512    0.3990E+000
   2.4587    0.3988E+000
   2.4662    0.3986E+000
   2.4737    0.3985E+000
   2.4812    0.3983E+000
   2.4887    0.3981E+000
   2.4962    0.3979E+000
   2.5038    0.3978E+000
   2.5113    0.3976E+000
   2.5188    0.3974E+000
   2.5263    0.3973E+000
   2.5338    0.3971E+000
   2.5413    0.3969E+000
   2.5488    0.3968E+000
   2.5563    0.3966E+000
   2.5638    0.3964E+000
   2.5713    0.3963E+000
   2.5788    0.3961E+000
   2.5863    0.3960E+000
   2.5938    0.3958E+000
   2.6013    0.3956E+000
   2.6088    0.3955E+000
   2.6163    0.3953E+000
   2.6238    0.3952E+000
   2.6313    0.3950E+000
   2.6388    0.3948E+000
   2.6463    0.3947E+000
   2.6538    0.3945E+000
   2.6613    0.3944E+000
   2.6688    0.3942E+000
   2.6763    0.3941E+000
   2.6838    0.3939E+000
   2.6913    0.3938E+000
   2.6988    0.3936E+000
   2.7064    0.3935E+000
   2.7139    0.3933E+000
   2.7214    0.3932E+000
   2.7289    0.3930E+000
   2.7364    0.3929E+000
   2.7439    0.3928E+000
   2.7514    0.3926E+000
   2.7589    0.3925E+000
   2.7664    0.3923E+000
   2.7739    0.3922E+000
   2.7814    0.3921E+000
   2.7889    0.3919E+000
   2.7964    0.3918E+000
   2.8039    0.3917E+000
   2.8114    0.3915E+000
   2.8189    0.3914E+000
   2.8264    0.3913E+000
   2.8339    0.3912E+000
   2.8414    0.3910E+000
   2.8489    0.3909E+000
   2.8564    0.3908E+000
   2.8639    0.3907E+000
   2.8714    0.3906E+000
   2.8789    0.3904E+000
   2.8864    0.3903E+000
   2.8939    0.3902E+000
   2.9015    0.3901E+000
   2.9090    0.3900E+000
   2.9165    0.3899E+000
   2.9240    0.3898E+000
   2.9315    0.3897E+000
   2.9390    0.3896E+000
   2.9465    0.3895E+000
   2.9540    0.3894E+000
   2.9615    0.3893E+000
   2.9690    0.3892E+000
   2.9765    0.3891E+000
   2.9840    0.3890E+000
   2.9915    0.3889E+000
   2.9990    0.3888E+000
   3.0065    0.3887E+000
   3.0140    0.3887E+000
   3.0215    0.3886E+000
   3.0290    0.3885E+000
   3.0365    0.3884E+000
   3.0440    0.3883E+000
   3.0515    0.3883E+000
   3.0590    0.3882E+000
   3.0665    0.3881E+000
   3.0740    0.3880E+000
   3.0815    0.3880E+000
   3.0890    0.3879E+000
   3.0965    0.3878E+000
   3.1041    0.3878E+000
   3.1116    0.3877E+000
   3.1191    0.3877E+000
   3.1266    0.3876E+000
   3.1341    0.3875E+000
   3.1416    0.3875E+000
   3.1491    0.3874E+000
   3.1566    0.3874E+000
   3.1641    0.3873E+000
   3.1716    0.3873E+000
   3.1791    0.3873E+000
   3.1866    0.3872E+000
   3.1941    0.3872E+000
   3.2016    0.3871E+000
   3.2091    0.3871E+000
   3.2166    0.3871E+000
   3.2241    0.3870E+000
   3.2316    0.3870E+000
   3.2391    0.3870E+000
   3.2466    0.3869E+000
   3.2541    0.3869E+000
   3.2616    0.3869E+000
   3.2691    0.3869E+000
   3.2766    0.3868E+000
   3.2841    0.3868E+000
   3.2916    0.3868E+000
   3.2991    0.3868E+000
   3.3067    0.3868E+000
   3.3142    0.3868E+000
   3.3217    0.3868E+000
   3.3292    0.3867E+000
   3.3367    0.3867E+000
   3.3442    0.3867E+000
   3.3517    0.3867E+000
   3.3592    0.3867E+000
   3.3667    0.3867E+000
   3.3742    0.3867E+000
   3.3817    0.3867E+000
   3.3892    0.3867E+000
   3.3967    0.3867E+000
   3.4042    0.3867E+000
   3.4117    0.3868E+000
   3.4192    0.3868E+000
   3.4267    0.3868E+000
   3.4342    0.3868E+000
   3.4417    0.3868E+000
   3.4492    0.3868E+000
   3.4567    0.3868E+000
   3.4642    0.3869E+000
   3.4717    0.3869E+000
   3.4792    0.3869E+000
   3.4867    0.3869E+000
   3.4942    0.3869E+000
   3.5018    0.3870E+000
   3.5093    0.3870E+000
   3.5168    0.3870E+000
   3.5243    0.3870E+000
   3.5318    0.3871E+000
   3.5393    0.3871E+000
   3.5468    0.3871E+000
   3.5543    0.3872E+000
   3.5618    0.3872E+000
   3.5693    0.3872E+000
   3.5768    0.3873E+000
   3.5843    0.3873E+000
   3.5918    0.3874E+000
   3.5993    0.3874E+000
   3.6068    0.3874E+000
   3.6143    0.3875E+000
   3.6218    0.3875E+000
   3.6293    0.3876E+000
   3.6368    0.3876E+000
   3.6443    0.3877E+000
   3.6518    0.3877E+000
   3.6593    0.3878E+000
   3.6668    0.3878E+000
   3.6743    0.3879E+000
   3.6818    0.3879E+000
   3.6893    0.3880E+000
   3.6968    0.3880E+000
   3.7044    0.3881E+000
   3.7119    0.3881E+000
   3.7194    0.3882E+000
   3.7269    0.3882E+000
   3.7344    0.3883E+000
   3.7419    0.3884E+000
   3.7494    0.3884E+000
   3.7569    0.3885E+000
   3.7644    0.3885E+000
   3.7719    0.3886E+000
   3.7794    0.3887E+000
   3.7869    0.3887E+000
   3.7944    0.3888E+000
   3.8019    0.3889E+000
   3.8094    0.3889E+000
   3.8169    0.3890E+000
   3.8244    0.3891E+000
   3.8319    0.3891E+000
   3.8394    0.3892E+000
   3.8469    0.3893E+000
   3.8544    0.3893E+000
   3.8619    0.3894E+000
   3.8694    0.3895E+000
   3.8769    0.3895E+000
   3.8844    0.3896E+000
   3.8919    0.3897E+000
   3.8994    0.3897E+000
   3.9070    0.3898E+000
   3.9145    0.3899E+000
   3.9220    0.3900E+000
   3.9295    0.3900E+000
   3.9370    0.3901E+000
   3.9445    0.3902E+000
   3.9520    0.3903E+000
   3.9595    0.3903E+000
   3.9670    0.3904E+000
   3.9745    0.3905E+000
   3.9820    0.3906E+000
   3.9895    0.3907E+000
   3.9970    0.3907E+000
   4.0045    0.3908E+000
   4.0120    0.3909E+000
   4.0195    0.3910E+000
   4.0270    0.3911E+000
   4.0345    0.3911E+000
   4.0420    0.3912E+000
   4.0495    0.3913E+000
   4.0570    0.3914E+000
   4.0645    0.3915E+000
   4.0720    0.3916E+000
   4.0795    0.3917E+000
   4.0870    0.3918E+000
   4.0945    0.3918E+000
   4.1021    0.3919E+000
   4.1096    0.3920E+000
   4.1171    0.3921E+000
   4.1246    0.3922E+000
   4.1321    0.3923E+000
   4.1396    0.3924E+000
   4.1471    0.3925E+000
   4.1546    0.3926E+000
   4.1621    0.3927E+000
   4.1696    0.3928E+000
   4.1771    0.3929E+000
   4.1846    0.3930E+000
   4.1921    0.3931E+000
   4.1996    0.3932E+000
   4.2071    0.3933E+000
   4.2146    0.3934E+000
   4.2221    0.3935E+000
   4.2296    0.3936E+000
   4.2371    0.3937E+000
   4.2446    0.3938E+000
   4.2521    0.3940E+000
   4.2596    0.3941E+000
   4.2671    0.3942E+000
   4.2746    0.3943E+000
   4.2821    0.3944E+000
   4.2896    0.3945E+000
   4.2971    0.3947E+000
   4.3047    0.3948E+000
   4.3122    0.3949E+000
   4.3197    0.3950E+000
   4.3272    0.3952E+000
   4.3347    0.3953E+000
   4.3422    0.3954E+000
   4.3497    0.3956E+000
   4.3572    0.3957E+000
   4.3647    0.3959E+000
   4.3722    0.3960E+000
   4.3797    0.3961E+000
   4.3872    0.3963E+000
   4.3947    0.3964E+000
   4.4022    0.3966E+000
   4.4097    0.3967E+000
   4.4172    0.3969E+000
   4.4247    0.3971E+000
   4.4322    0.3972E+000
   4.4397    0.3974E+000
   4.4472    0.3975E+000
   4.4547    0.3977E+000
   4.4622    0.3979E+000
   4.4697    0.3981E+000
   4.4772    0.3982E+000
   4.4847    0.3984E+000
   4.4922    0.3986E+000
   4.4997    0.3988E+000
   4.5073    0.3990E+000
   4.5148    0.3992E+000
   4.5223    0.3994E+000
   4.5298    0.3996E+000
   4.5373    0.3998E+000
   4.5448    0.4000E+000
   4.5523    0.4002E+000
   4.5598    0.4004E+000
   4.5673    0.4006E+000
   4.5748    0.4009E+000
   4.5823    0.4011E+000
   4.5898    0.4013E+000
   4.5973    0.4015E+000
   4.6048    0.4018E+000
   4.6123    0.4020E+000
   4.6198    0.4023E+000
   4.6273    0.4025E+000
   4.6348    0.4028E+000
   4.6423    0.4030E+000
   4.6498    0.4033E+000
   4.6573    0.4036E+000
   4.6648    0.4039E+000
   4.6723    0.4041E+000
   4.6798    0.4044E+000
   4.6873    0.4047E+000
   4.6948    0.4050E+000
   4.7024    0.4053E+000
   4.7099    0.4056E+000
   4.7174    0.4059E+000
   4.7249    0.4062E+000
   4.7324    0.4066E+000
   4.7399    0.4069E+000
   4.7474    0.4072E+000
   4.7549    0.4076E+000
   4.7624    0.4079E+000
   4.7699    0.4082E+000
   4.7774    0.4086E+000
   4.7849    0.4090E+000
   4.7924    0.4093E+000
   4.7999    0.4097E+000
   4.8074    0.4101E+000
   4.8149    0.4105E+000
   4.8224    0.4109E+000
   4.8299    0.4113E+000
   4.8374    0.4117E+000
   4.8449    0.4121E+000
   4.8524    0.4125E+000
   4.8599    0.4130E+000
   4.8674    0.4134E+000
   4.8749    0.4138E+000
   4.8824    0.4143E+000
   4.8899    0.4147E+000
   4.8974    0.4152E+000
   4.9050    0.4157E+000
   4.9125    0.4162E+000
   4.9200    0.4167E+000
   4.9275    0.4172E+000
   4.9350    0.4177E+000
   4.9425    0.4182E+000
   4.9500    0.4187E+000
   4.9575    0.4192E+000
   4.9650    0.4198E+000
   4.9725    0.4203E+000
   4.9800    0.4209E+000
   4.9875    0.4215E+000
   4.9950    0.4220E+000
   5.0025    0.4226E+000
   5.0100    0.4232E+000
   5.0175    0.4238E+000
   5.0250    0.4244E+000
   5.0325    0.4251E+000
   5.0400    0.4257E+000
   5.0475    0.4263E+000
   5.0550    0.4270E+000
   5.0625    0.4277E+000
   5.0700    0.4283E+000
   5.0775    0.4290E+000
   5.0850    0.4297E+000
   5.0925    0.4304E+000
   5.1001    0.4311E+000
   5.1076    0.4319E+000
   5.1151    0.4326E+000
   5.1226    0.4334E+000
   5.1301    0.4341E+000
   5.1376    0.4349E+000
   5.1451    0.4357E+000
   5.1526    0.4365E+000
   5.1601    0.4373E+000
   5.1676    0.4381E+000
   5.1751    0.4390E+000
   5.1826    0.4398E+000
   5.1901    0.4407E+000
   5.1976    0.4416E+000
   5.2051    0.4425E+000
   5.2126    0.4434E+000
   5.2201    0.4443E+000
   5.2276    0.4452E+000
   5.2351    0.4462E+000
   5.2426    0.4471E+000
   5.2501    0.4481E+000
   5.2576    0.4491E+000
   5.2651    0.4501E+000
   5.2726    0.4511E+000
   5.2801    0.4522E+000
   5.2876    0.4532E+000
   5.2951    0.4543E+000
   5.3027    0.4554E+000
   5.3102    0.4565E+000
   5.3177    0.4576E+000
   5.3252    0.4587E+000
   5.3327    0.4599E+000
   5.3402    0.4611E+000
   5.3477    0.4623E+000
   5.3552    0.4635E+000
   5.3627    0.4647E+000
   5.3702    0.4659E+000
   5.3777    0.4672E+000
   5.3852    0.4685E+000
   5.3927    0.4698E+000
   5.4002    0.4711E+000
   5.4077    0.4725E+000
   5.4152    0.4738E+000
   5.4227    0.4752E+000
   5.4302    0.4766E+000
   5.4377    0.4781E+000
   5.4452    0.4795E+000
   5.4527    0.4810E+000
   5.4602    0.4825E+000
   5.4677    0.4840E+000
   5.4752    0.4856E+000
   5.4827    0.4871E+000
   5.4902    0.4887E+000
   5.4977    0.4904E+000
   5.5053    0.4920E+000
   5.5128    0.4937E+000
   5.5203    0.4954E+000
   5.5278    0.4971E+000
   5.5353    0.4989E+000
   5.5428    0.5007E+000
   5.5503    0.5025E+000
   5.5578    0.5044E+000
   5.5653    0.5063E+000
   5.5728    0.5082E+000
   5.5803    0.5101E+000
   5.5878    0.5121E+000
   5.5953    0.5141E+000
   5.6028    0.5162E+000
   5.6103    0.5183E+000
   5.6178    0.5204E+000
   5.6253    0.5226E+000
   5.6328    0.5248E+000
   5.6403    0.5270E+000
   5.6478    0.5293E+000
   5.6553    0.5316E+000
   5.6628    0.5340E+000
   5.6703    0.5364E+000
   5.6778    0.5389E+000
   5.6853    0.5414E+000
   5.6928    0.5439E+000
   5.7004    0.5465E+000
   5.7079    0.5492E+000
   5.7154    0.5519E+000
   5.7229    0.5547E+000
   5.7304    0.5575E+000
   5.7379    0.5604E+000
   5.7454    0.5633E+000
   5.7529    0.5663E+000
   5.7604    0.5694E+000
   5.7679    0.5726E+000
   5.7754    0.5758E+000
   5.7829    0.5790E+000
   5.7904    0.5824E+000
   5.7979    0.5858E+000
   5.8054    0.5893E+000
   5.8129    0.5929E+000
   5.8204    0.5966E+000
   5.8279    0.6004E+000
   5.8354    0.6043E+000
   5.8429    0.6083E+000
   5.8504    0.6123E+000
   5.8579    0.6165E+000
   5.8654    0.6208E+000
   5.8729    0.6252E+000
   5.8804    0.6297E+000
   5.8879    0.6344E+000
   5.8954    0.6392E+000
   5.9030    0.6441E+000
   5.9105    0.6492E+000
   5.9180    0.6545E+000
   5.9255    0.6599E+000
   5.9330    0.6654E+000
   5.9405    0.6712E+000
   5.9480    0.6771E+000
   5.9555    0.6833E+000
   5.9630    0.6897E+000
   5.9705    0.6963E+000
   5.9780    0.7031E+000
   5.9855    0.7102E+000
   5.9930    0.7176E+000
   6.0005    0.7253E+000
   6.0080    0.7333E+000
   6.0155    0.7416E+000
   6.0230    0.7503E+000
   6.0305    0.7594E+000
   6.0380    0.7689E+000
   6.0455    0.7788E+000
   6.0530    0.7893E+000
   6.0605    0.8003E+000
   6.0680    0.8118E+000
   6.0755    0.8240E+000
   6.0830    0.8369E+000
   6.0905    0.8506E+000
   6.0980    0.8651E+000
   6.1056    0.8806E+000
   6.1131    0.8971E+000
   6.1206    0.9149E+000
   6.1281    0.9340E+000
   6.1356    0.9546E+000
   6.1431    0.9771E+000
   6.1506    0.1002E+001
   6.1581    0.1029E+001
   6.1656    0.1059E+001
   6.1731    0.1093E+001
   6.1806    0.1131E+001
   6.1881    0.1175E+001
   6.1956    0.1226E+001
   6.2031    0.1284E+001
   6.2106    0.1352E+001
   6.2181    0.1429E+001
   6.2256    0.1516E+001
   6.2331    0.1610E+001
   6.2406    0.1706E+001
   6.2481    0.1799E+001
   6.2556    0.1879E+001
   6.2631    0.1937E+001
   6.2706    0.1961E+001
   6.2781    0.1943E+001
   6.2856    0.1878E+001
   6.2931    0.1764E+001
   6.3007    0.1606E+001
   6.3082    0.1415E+001
   6.3157    0.1204E+001
   6.3232    0.9876E+000
   6.3307    0.7800E+000
   6.3382    0.5926E+000
   6.3457    0.4327E+000
   6.3532    0.3034E+000
   6.3607    0.2042E+000
   6.3682    0.1319E+000
   6.3757    0.8164E-001
   6.3832    0.4845E-001
   6.3907    0.2755E-001
   6.3982    0.1501E-001
   6.4057    0.7835E-002
   6.4132    0.3915E-002
   6.4207    0.1873E-002
   6.4282    0.8581E-003
   6.4357    0.3762E-003
   6.4432    0.1579E-003
   6.4507    0.6341E-004
   6.4582    0.2437E-004
   6.4657    0.8960E-005
   6.4732    0.3152E-005
   6.4807    0.1061E-005
   6.4882    0.3417E-006
   6.4957    0.1052E-006
   6.5033    0.3101E-007
   6.5108    0.8740E-008
   6.5183    0.2356E-008
   6.5258    0.6075E-009
   6.5333    0.1498E-009
   6.5408    0.3533E-010
   6.5483    0.7970E-011
   6.5558    0.1719E-011
   6.5633    0.3547E-012
   6.5708    0.6998E-013
   6.5783    0.1320E-013
   6.5858    0.2382E-014
   6.5933    0.4110E-015
   6.6008    0.6781E-016
   6.6083    0.1070E-016
   6.6158    0.1614E-017
   6.6233    0.2328E-018
   6.6308    0.3210E-019
   6.6383    0.4234E-020
   6.6458    0.5340E-021
   6.6533    0.6438E-022
   6.6608    0.7423E-023
   6.6683    0.8183E-024
   6.6758    0.8625E-025
   6.6833    0.8692E-026
   6.6908    0.8376E-027
   6.6983    0.7716E-028
   6.7059    0.6797E-029
   6.7134    0.5725E-030
   6.7209    0.4610E-031
   6.7284    0.3549E-032
   6.7359    0.2612E-033
   6.7434    0.1839E-034
   6.7509    0.1237E-035
   6.7584    0.7959E-037
   6.7659    0.4895E-038
   6.7734    0.2879E-039
   6.7809    0.1618E-040
   6.7884    0.8699E-042
   6.7959    0.4471E-043
   6.8034    0.2196E-044
   6.8109    0.1032E-045
   6.8184    0.4634E-047
   6.8259    0.1989E-048
   6.8334    0.8166E-050
   6.8409    0.3205E-051
   6.8484    0.1202E-052
   6.8559    0.4313E-054
   6.8634    0.1479E-055
   6.8709    0.4849E-057
   6.8784    0.1520E-058
   6.8859    0.4555E-060
   6.8934    0.1305E-061
   6.9010    0.3574E-063
   6.9085    0.9357E-065
   6.9160    0.2342E-066
   6.9235    0.5606E-068
   6.9310    0.1283E-069
   6.9385    0.2806E-071
   6.9460    0.5867E-073
   6.9535    0.1173E-074
   6.9610    0.2242E-076
   6.9685    0.4096E-078
   6.9760    0.7154E-080
   6.9835    0.1195E-081
   6.9910    0.1907E-083
   6.9985    0.2911E-085
   7.0060    0.4248E-087
   7.0135    0.5926E-089
   7.0210    0.7902E-091
   7.0285    0.1007E-092
   7.0360    0.1228E-094
   7.0435    0.1431E-096
   7.0510    0.1594E-098
   7.0585    0.1697E-100
   7.0660    0.1728E-102
   7.0735    0.1682E-104
   7.0810    0.1565E-106
   7.0885    0.1392E-108
   7.0960    0.1183E-110
   7.1036    0.9621E-113
   7.1111    0.7477E-115
   7.1186    0.5555E-117
   7.1261    0.3946E-119
   7.1336    0.2679E-121
   7.1411    0.1739E-123
   7.1486    0.1079E-125
   7.1561    0.6403E-128
   7.1636    0.3631E-130
   7.1711    0.1969E-132
   7.1786    0.1020E-134
   7.1861    0.5057E-137
   7.1936    0.2395E-139
   7.2011    0.1085E-141
   7.2086    0.4696E-144
   7.2161    0.1944E-146
   7.2236    0.7690E-149
   7.2311    0.2909E-151
   7.2386    0.1052E-153
   7.2461    0.3636E-156
   7.2536    0.1201E-158
   7.2611    0.3796E-161
   7.2686    0.1146E-163
   7.2761    0.3309E-166
   7.2836    0.9134E-169
   7.2911    0.2410E-171
   7.2986    0.6080E-174
   7.3062    0.1466E-176
   7.3137    0.3380E-179
   7.3212    0.7448E-182
   7.3287    0.1569E-184
   7.3362    0.3160E-187
   7.3437    0.6084E-190
   7.3512    0.1120E-192
   7.3587    0.1971E-195
   7.3662    0.3315E-198
   7.3737    0.5330E-201
   7.3812    0.8194E-204
   7.3887    0.1204E-206
   7.3962    0.1692E-209
   7.4037    0.2272E-212
   7.4112    0.2917E-215
   7.4187    0.3581E-218
   7.4262    0.4202E-221
   7.4337    0.4713E-224
   7.4412    0.5054E-227
   7.4487    0.5181E-230
   7.4562    0.5077E-233
   7.4637    0.4757E-236
   7.4712    0.4260E-239
   7.4787    0.3648E-242
   7.4862    0.2985E-245
   7.4937    0.2336E-248
   7.5013    0.1747E-251
   7.5088    0.1249E-254
   7.5163    0.8541E-258
   7.5238    0.5581E-261
   7.5313    0.3487E-264
   7.5388    0.2082E-267
   7.5463    0.1189E-270
   7.5538    0.6488E-274
   7.5613    0.3385E-277
   7.5688    0.1688E-280
   7.5763    0.8051E-284
   7.5838    0.3670E-287
   7.5913    0.1599E-290
   7.5988    0.6661E-294
   7.6063    0.2653E-297
   7.6138    0.1010E-300
   7.6213    0.3673E-304
   7.6288    0.0000E+000
   7.6363    0.0000E+000
   7.6438    0.0000E+000
   7.6513    0.0000E+000
   7.6588    0.0000E+000
   7.6663    0.0000E+000
   7.6738    0.0000E+000
   7.6813    0.0000E+000
   7.6888    0.0000E+000
   7.6963    0.0000E+000
   7.7039    0.0000E+000
   7.7114    0.0000E+000
   7.7189    0.0000E+000
   7.7264    0.0000E+000
   7.7339    0.0000E+000
   7.7414    0.0000E+000
   7.7489    0.0000E+000
   7.7564    0.0000E+000
   7.7639    0.0000E+000
   7.7714    0.0000E+000
   7.7789    0.0000E+000
   7.7864    0.0000E+000
   7.7939    0.0000E+000
   7.8014    0.0000E+000
   7.8089    0.0000E+000
   7.8164    0.0000E+000
   7.8239    0.0000E+000
   7.8314    0.0000E+000
   7.8389    0.0000E+000
   7.8464    0.0000E+000
   7.8539    0.0000E+000
   7.8614    0.0000E+000
   7.8689    0.0000E+000
   7.8764    0.0000E+000
   7.8839    0.0000E+000
   7.8914    0.0000E+000
   7.8989    0.0000E+000
   7.9065    0.0000E+000
   7.9140    0.0000E+000
   7.9215    0.0000E+000
   7.9290    0.0000E+000
   7.9365    0.0000E+000
   7.9440    0.0000E+000
   7.9515    0.0000E+000
   7.9590    0.0000E+000
   7.9665    0.0000E+000
   7.9740    0.0000E+000
   7.9815    0.0000E+000
   7.9890    0.0000E+000
   7.9965    0.0000E+000
   8.0040    0.0000E+000
   8.0115    0.0000E+000
   8.0190    0.0000E+000
   8.0265    0.0000E+000
   8.0340    0.0000E+000
   8.0415    0.0000E+000
   8.0490    0.0000E+000
   8.0565    0.0000E+000
   8.0640    0.0000E+000
   8.0715    0.0000E+000
   8.0790    0.0000E+000
   8.0865    0.0000E+000
   8.0940    0.0000E+000
   8.1016    0.0000E+000
   8.1091    0.0000E+000
   8.1166    0.0000E+000
   8.1241    0.0000E+000
   8.1316    0.0000E+000
   8.1391    0.0000E+000
   8.1466    0.0000E+000
   8.1541    0.0000E+000
   8.1616    0.0000E+000
   8.1691    0.0000E+000
   8.1766    0.0000E+000
   8.1841    0.0000E+000
   8.1916    0.0000E+000
   8.1991    0.0000E+000
   8.2066    0.0000E+000
   8.2141    0.0000E+000
   8.2216    0.0000E+000
   8.2291    0.0000E+000
   8.2366    0.0000E+000
   8.2441    0.0000E+000
   8.2516    0.0000E+000
   8.2591    0.0000E+000
   8.2666    0.0000E+000
   8.2741    0.0000E+000
   8.2816    0.0000E+000
   8.2891    0.0000E+000
   8.2966    0.0000E+000
   8.3042    0.0000E+000
   8.3117    0.0000E+000
   8.3192    0.0000E+000
   8.3267    0.0000E+000
   8.3342    0.0000E+000
   8.3417    0.0000E+000
   8.3492    0.0000E+000
   8.3567    0.0000E+000
   8.3642    0.0000E+000
   8.3717    0.0000E+000
   8.3792    0.0000E+000
   8.3867    0.0000E+000
   8.3942    0.0000E+000
   8.4017    0.0000E+000
   8.4092    0.0000E+000
   8.4167    0.0000E+000
   8.4242    0.0000E+000
   8.4317    0.0000E+000
   8.4392    0.0000E+000
   8.4467    0.0000E+000
   8.4542    0.0000E+000
   8.4617    0.0000E+000
   8.4692    0.0000E+000
   8.4767    0.0000E+000
   8.4842    0.0000E+000
   8.4917    0.0000E+000
   8.4992    0.0000E+000
   8.5068    0.0000E+000
   8.5143    0.0000E+000
   8.5218    0.0000E+000
   8.5293    0.0000E+000
   8.5368    0.0000E+000
   8.5443    0.0000E+000
   8.5518    0.0000E+000
   8.5593    0.0000E+000
   8.5668    0.0000E+000
   8.5743    0.0000E+000
   8.5818    0.0000E+000
   8.5893    0.0000E+000
   8.5968    0.0000E+000
   8.6043    0.0000E+000
   8.6118    0.0000E+000
   8.6193    0.0000E+000
   8.6268    0.0000E+000
   8.6343    0.0000E+000
   8.6418    0.0000E+000
   8.6493    0.0000E+000
   8.6568    0.0000E+000
   8.6643    0.0000E+000
   8.6718    0.0000E+000
   8.6793    0.0000E+000
   8.6868    0.0000E+000
   8.6943    0.0000E+000
   8.7019    0.0000E+000
   8.7094    0.0000E+000
   8.7169    0.0000E+000
   8.7244    0.0000E+000
   8.7319    0.0000E+000
   8.7394    0.0000E+000
   8.7469    0.0000E+000
   8.7544    0.0000E+000
   8.7619    0.0000E+000
   8.7694    0.0000E+000
   8.7769    0.0000E+000
   8.7844    0.0000E+000
   8.7919    0.0000E+000
   8.7994    0.0000E+000
   8.8069    0.0000E+000
   8.8144    0.0000E+000
   8.8219    0.0000E+000
   8.8294    0.0000E+000
   8.8369    0.0000E+000
   8.8444    0.0000E+000
   8.8519    0.0000E+000
   8.8594    0.0000E+000
   8.8669    0.0000E+000
   8.8744    0.0000E+000
   8.8819    0.0000E+000
   8.8894    0.0000E+000
   8.8969    0.0000E+000
   8.9045    0.0000E+000
   8.9120    0.0000E+000
   8.9195    0.0000E+000
   8.9270    0.0000E+000
   8.9345    0.0000E+000
   8.9420    0.0000E+000
   8.9495    0.0000E+000
   8.9570    0.0000E+000
   8.9645    0.0000E+000
   8.9720    0.0000E+000
   8.9795    0.0000E+000
   8.9870    0.0000E+000
   8.9945    0.0000E+000
   9.0020    0.0000E+000
   9.0095    0.0000E+000
   9.0170    0.0000E+000
   9.0245    0.0000E+000
   9.0320    0.0000E+000
   9.0395    0.0000E+000
   9.0470    0.0000E+000
   9.0545    0.0000E+000
   9.0620    0.0000E+000
   9.0695    0.0000E+000
   9.0770    0.0000E+000
   9.0845    0.0000E+000
   9.0920    0.0000E+000
   9.0995    0.0000E+000
   9.1071    0.0000E+000
   9.1146    0.0000E+000
   9.1221    0.0000E+000
   9.1296    0.0000E+000
   9.1371    0.0000E+000
   9.1446    0.0000E+000
   9.1521    0.0000E+000
   9.1596    0.0000E+000
   9.1671    0.0000E+000
   9.1746    0.0000E+000
   9.1821    0.0000E+000
   9.1896    0.0000E+000
   9.1971    0.0000E+000
   9.2046    0.0000E+000
   9.2121    0.0000E+000
   9.2196    0.0000E+000
   9.2271    0.0000E+000
   9.2346    0.0000E+000
   9.2421    0.0000E+000
   9.2496    0.0000E+000
   9.2571    0.0000E+000
   9.2646    0.0000E+000
   9.2721    0.0000E+000
   9.2796    0.0000E+000
   9.2871    0.0000E+000
   9.2946    0.0000E+000
   9.3022    0.0000E+000
   9.3097    0.0000E+000
   9.3172    0.0000E+000
   9.3247    0.0000E+000
   9.3322    0.0000E+000
   9.3397    0.0000E+000
   9.3472    0.0000E+000
   9.3547    0.0000E+000
   9.3622    0.0000E+000
   9.3697    0.0000E+000
   9.3772    0.0000E+000
   9.3847    0.0000E+000
   9.3922    0.0000E+000
   9.3997    0.0000E+000
   9.4072    0.0000E+000
   9.4147    0.0000E+000
   9.4222    0.0000E+000
   9.4297    0.0000E+000
   9.4372    0.0000E+000
   9.4447    0.0000E+000
   9.4522    0.0000E+000
   9.4597    0.0000E+000
   9.4672    0.0000E+000
   9.4747    0.0000E+000
   9.4822    0.0000E+000
   9.4897    0.0000E+000
   9.4972    0.0000E+000
   9.5048    0.0000E+000
   9.5123    0.0000E+000
   9.5198    0.0000E+000
   9.5273    0.0000E+000
   9.5348    0.0000E+000
   9.5423    0.0000E+000
   9.5498    0.0000E+000
   9.5573    0.0000E+000
   9.5648    0.0000E+000
   9.5723    0.0000E+000
   9.5798    0.0000E+000
   9.5873    0.0000E+000
   9.5948    0.0000E+000
   9.6023    0.0000E+000
   9.6098    0.0000E+000
   9.6173    0.0000E+000
   9.6248    0.0000E+000
   9.6323    0.0000E+000
   9.6398    0.0000E+000
   9.6473    0.0000E+000
   9.6548    0.0000E+000
   9.6623    0.0000E+000
   9.6698    0.0000E+000
   9.6773    0.0000E+000
   9.6848    0.0000E+000
   9.6923    0.0000E+000
   9.6998    0.0000E+000
   9.7074    0.0000E+000
   9.7149    0.0000E+000
   9.7224    0.0000E+000
   9.7299    0.0000E+000
   9.7374    0.0000E+000
   9.7449    0.0000E+000
   9.7524    0.0000E+000
   9.7599    0.0000E+000
   9.7674    0.0000E+000
   9.7749    0.0000E+000
   9.7824    0.0000E+000
   9.7899    0.0000E+000
   9.7974    0.0000E+000
   9.8049    0.0000E+000
   9.8124    0.0000E+000
   9.8199    0.0000E+000
   9.8274    0.0000E+000
   9.8349    0.0000E+000
   9.8424    0.0000E+000
   9.8499    0.0000E+000
   9.8574    0.0000E+000
   9.8649    0.0000E+000
   9.8724    0.0000E+000
   9.8799    0.0000E+000
   9.8874    0.0000E+000
   9.8949    0.0000E+000
   9.9025    0.0000E+000
   9.9100    0.0000E+000
   9.9175    0.0000E+000
   9.9250    0.0000E+000
   9.9325    0.0000E+000
   9.9400    0.0000E+000
   9.9475    0.0000E+000
   9.9550    0.0000E+000
   9.9625    0.0000E+000
   9.9700    0.0000E+000
   9.9775    0.0000E+000
   9.9850    0.0000E+000
   9.9925    0.0000E+000
  10.0000    0.0000E+000
