 # E (eV)   ldos(E)
 -15.0000    0.0000E+000
 -14.9925    0.0000E+000
 -14.9850    0.0000E+000
 -14.9775    0.0000E+000
 -14.9700    0.0000E+000
 -14.9625    0.0000E+000
 -14.9550    0.0000E+000
 -14.9475    0.0000E+000
 -14.9400    0.0000E+000
 -14.9325    0.0000E+000
 -14.9250    0.0000E+000
 -14.9175    0.0000E+000
 -14.9100    0.0000E+000
 -14.9025    0.0000E+000
 -14.8950    0.0000E+000
 -14.8875    0.0000E+000
 -14.8800    0.0000E+000
 -14.8725    0.0000E+000
 -14.8650    0.0000E+000
 -14.8575    0.0000E+000
 -14.8500    0.0000E+000
 -14.8425    0.0000E+000
 -14.8350    0.0000E+000
 -14.8275    0.0000E+000
 -14.8200    0.0000E+000
 -14.8125    0.0000E+000
 -14.8050    0.0000E+000
 -14.7974    0.0000E+000
 -14.7899    0.0000E+000
 -14.7824    0.0000E+000
 -14.7749    0.0000E+000
 -14.7674    0.0000E+000
 -14.7599    0.0000E+000
 -14.7524    0.0000E+000
 -14.7449    0.0000E+000
 -14.7374    0.0000E+000
 -14.7299    0.0000E+000
 -14.7224    0.0000E+000
 -14.7149    0.0000E+000
 -14.7074    0.0000E+000
 -14.6999    0.0000E+000
 -14.6924    0.0000E+000
 -14.6849    0.0000E+000
 -14.6774    0.0000E+000
 -14.6699    0.0000E+000
 -14.6624    0.0000E+000
 -14.6549    0.0000E+000
 -14.6474    0.0000E+000
 -14.6399    0.0000E+000
 -14.6324    0.0000E+000
 -14.6249    0.0000E+000
 -14.6174    0.0000E+000
 -14.6099    0.0000E+000
 -14.6024    0.0000E+000
 -14.5949    0.0000E+000
 -14.5874    0.1905E-306
 -14.5799    0.1012E-304
 -14.5724    0.5319E-303
 -14.5649    0.2763E-301
 -14.5574    0.1420E-299
 -14.5499    0.7211E-298
 -14.5424    0.3622E-296
 -14.5349    0.1799E-294
 -14.5274    0.8834E-293
 -14.5199    0.4290E-291
 -14.5124    0.2060E-289
 -14.5049    0.9780E-288
 -14.4974    0.4592E-286
 -14.4899    0.2132E-284
 -14.4824    0.9784E-283
 -14.4749    0.4441E-281
 -14.4674    0.1993E-279
 -14.4599    0.8845E-278
 -14.4524    0.3882E-276
 -14.4449    0.1684E-274
 -14.4374    0.7226E-273
 -14.4299    0.3066E-271
 -14.4224    0.1286E-269
 -14.4149    0.5335E-268
 -14.4074    0.2188E-266
 -14.3998    0.8874E-265
 -14.3923    0.3559E-263
 -14.3848    0.1411E-261
 -14.3773    0.5534E-260
 -14.3698    0.2145E-258
 -14.3623    0.8225E-257
 -14.3548    0.3118E-255
 -14.3473    0.1169E-253
 -14.3398    0.4332E-252
 -14.3323    0.1588E-250
 -14.3248    0.5754E-249
 -14.3173    0.2062E-247
 -14.3098    0.7306E-246
 -14.3023    0.2560E-244
 -14.2948    0.8868E-243
 -14.2873    0.3038E-241
 -14.2798    0.1029E-239
 -14.2723    0.3447E-238
 -14.2648    0.1141E-236
 -14.2573    0.3738E-235
 -14.2498    0.1210E-233
 -14.2423    0.3876E-232
 -14.2348    0.1227E-230
 -14.2273    0.3842E-229
 -14.2198    0.1189E-227
 -14.2123    0.3640E-226
 -14.2048    0.1102E-224
 -14.1973    0.3298E-223
 -14.1898    0.9759E-222
 -14.1823    0.2856E-220
 -14.1748    0.8263E-219
 -14.1673    0.2364E-217
 -14.1598    0.6688E-216
 -14.1523    0.1871E-214
 -14.1448    0.5175E-213
 -14.1373    0.1416E-211
 -14.1298    0.3828E-210
 -14.1223    0.1024E-208
 -14.1148    0.2707E-207
 -14.1073    0.7079E-206
 -14.0998    0.1830E-204
 -14.0923    0.4679E-203
 -14.0848    0.1183E-201
 -14.0773    0.2956E-200
 -14.0698    0.7307E-199
 -14.0623    0.1786E-197
 -14.0548    0.4316E-196
 -14.0473    0.1031E-194
 -14.0398    0.2437E-193
 -14.0323    0.5693E-192
 -14.0248    0.1315E-190
 -14.0173    0.3005E-189
 -14.0098    0.6787E-188
 -14.0023    0.1516E-186
 -13.9947    0.3348E-185
 -13.9872    0.7311E-184
 -13.9797    0.1579E-182
 -13.9722    0.3371E-181
 -13.9647    0.7117E-180
 -13.9572    0.1486E-178
 -13.9497    0.3067E-177
 -13.9422    0.6260E-176
 -13.9347    0.1264E-174
 -13.9272    0.2522E-173
 -13.9197    0.4976E-172
 -13.9122    0.9711E-171
 -13.9047    0.1874E-169
 -13.8972    0.3575E-168
 -13.8897    0.6744E-167
 -13.8822    0.1258E-165
 -13.8747    0.2320E-164
 -13.8672    0.4232E-163
 -13.8597    0.7633E-162
 -13.8522    0.1361E-160
 -13.8447    0.2400E-159
 -13.8372    0.4185E-158
 -13.8297    0.7216E-157
 -13.8222    0.1230E-155
 -13.8147    0.2074E-154
 -13.8072    0.3456E-153
 -13.7997    0.5697E-152
 -13.7922    0.9284E-151
 -13.7847    0.1496E-149
 -13.7772    0.2384E-148
 -13.7697    0.3756E-147
 -13.7622    0.5853E-146
 -13.7547    0.9016E-145
 -13.7472    0.1373E-143
 -13.7397    0.2069E-142
 -13.7322    0.3081E-141
 -13.7247    0.4538E-140
 -13.7172    0.6608E-139
 -13.7097    0.9516E-138
 -13.7022    0.1355E-136
 -13.6947    0.1908E-135
 -13.6872    0.2656E-134
 -13.6797    0.3655E-133
 -13.6722    0.4976E-132
 -13.6647    0.6697E-131
 -13.6572    0.8913E-130
 -13.6497    0.1173E-128
 -13.6422    0.1526E-127
 -13.6347    0.1964E-126
 -13.6272    0.2498E-125
 -13.6197    0.3143E-124
 -13.6122    0.3910E-123
 -13.6047    0.4809E-122
 -13.5971    0.5849E-121
 -13.5896    0.7034E-120
 -13.5821    0.8365E-119
 -13.5746    0.9836E-118
 -13.5671    0.1144E-116
 -13.5596    0.1315E-115
 -13.5521    0.1495E-114
 -13.5446    0.1680E-113
 -13.5371    0.1868E-112
 -13.5296    0.2053E-111
 -13.5221    0.2231E-110
 -13.5146    0.2397E-109
 -13.5071    0.2547E-108
 -13.4996    0.2676E-107
 -13.4921    0.2781E-106
 -13.4846    0.2857E-105
 -13.4771    0.2902E-104
 -13.4696    0.2915E-103
 -13.4621    0.2895E-102
 -13.4546    0.2843E-101
 -13.4471    0.2761E-100
 -13.4396    0.2651E-099
 -13.4321    0.2517E-098
 -13.4246    0.2363E-097
 -13.4171    0.2194E-096
 -13.4096    0.2014E-095
 -13.4021    0.1828E-094
 -13.3946    0.1640E-093
 -13.3871    0.1456E-092
 -13.3796    0.1278E-091
 -13.3721    0.1109E-090
 -13.3646    0.9512E-090
 -13.3571    0.8070E-089
 -13.3496    0.6770E-088
 -13.3421    0.5616E-087
 -13.3346    0.4606E-086
 -13.3271    0.3736E-085
 -13.3196    0.2996E-084
 -13.3121    0.2376E-083
 -13.3046    0.1863E-082
 -13.2971    0.1444E-081
 -13.2896    0.1107E-080
 -13.2821    0.8395E-080
 -13.2746    0.6293E-079
 -13.2671    0.4664E-078
 -13.2596    0.3418E-077
 -13.2521    0.2477E-076
 -13.2446    0.1775E-075
 -13.2371    0.1258E-074
 -13.2296    0.8814E-074
 -13.2221    0.6106E-073
 -13.2146    0.4183E-072
 -13.2071    0.2834E-071
 -13.1995    0.1898E-070
 -13.1920    0.1257E-069
 -13.1845    0.8232E-069
 -13.1770    0.5331E-068
 -13.1695    0.3413E-067
 -13.1620    0.2161E-066
 -13.1545    0.1353E-065
 -13.1470    0.8376E-065
 -13.1395    0.5127E-064
 -13.1320    0.3103E-063
 -13.1245    0.1857E-062
 -13.1170    0.1099E-061
 -13.1095    0.6432E-061
 -13.1020    0.3722E-060
 -13.0945    0.2129E-059
 -13.0870    0.1205E-058
 -13.0795    0.6740E-058
 -13.0720    0.3728E-057
 -13.0645    0.2039E-056
 -13.0570    0.1103E-055
 -13.0495    0.5898E-055
 -13.0420    0.3119E-054
 -13.0345    0.1631E-053
 -13.0270    0.8431E-053
 -13.0195    0.4311E-052
 -13.0120    0.2179E-051
 -13.0045    0.1089E-050
 -12.9970    0.5384E-050
 -12.9895    0.2631E-049
 -12.9820    0.1272E-048
 -12.9745    0.6076E-048
 -12.9670    0.2871E-047
 -12.9595    0.1341E-046
 -12.9520    0.6198E-046
 -12.9445    0.2831E-045
 -12.9370    0.1279E-044
 -12.9295    0.5712E-044
 -12.9220    0.2523E-043
 -12.9145    0.1102E-042
 -12.9070    0.4757E-042
 -12.8995    0.2031E-041
 -12.8920    0.8577E-041
 -12.8845    0.3581E-040
 -12.8770    0.1478E-039
 -12.8695    0.6034E-039
 -12.8620    0.2435E-038
 -12.8545    0.9719E-038
 -12.8470    0.3836E-037
 -12.8395    0.1497E-036
 -12.8320    0.5775E-036
 -12.8245    0.2203E-035
 -12.8170    0.8313E-035
 -12.8095    0.3101E-034
 -12.8020    0.1144E-033
 -12.7944    0.4172E-033
 -12.7869    0.1505E-032
 -12.7794    0.5366E-032
 -12.7719    0.1892E-031
 -12.7644    0.6598E-031
 -12.7569    0.2275E-030
 -12.7494    0.7755E-030
 -12.7419    0.2614E-029
 -12.7344    0.8714E-029
 -12.7269    0.2872E-028
 -12.7194    0.9361E-028
 -12.7119    0.3017E-027
 -12.7044    0.9613E-027
 -12.6969    0.3029E-026
 -12.6894    0.9437E-026
 -12.6819    0.2907E-025
 -12.6744    0.8856E-025
 -12.6669    0.2668E-024
 -12.6594    0.7946E-024
 -12.6519    0.2340E-023
 -12.6444    0.6815E-023
 -12.6369    0.1962E-022
 -12.6294    0.5587E-022
 -12.6219    0.1573E-021
 -12.6144    0.4380E-021
 -12.6069    0.1206E-020
 -12.5994    0.3282E-020
 -12.5919    0.8833E-020
 -12.5844    0.2351E-019
 -12.5769    0.6186E-019
 -12.5694    0.1610E-018
 -12.5619    0.4142E-018
 -12.5544    0.1054E-017
 -12.5469    0.2651E-017
 -12.5394    0.6595E-017
 -12.5319    0.1622E-016
 -12.5244    0.3946E-016
 -12.5169    0.9489E-016
 -12.5094    0.2257E-015
 -12.5019    0.5306E-015
 -12.4944    0.1234E-014
 -12.4869    0.2837E-014
 -12.4794    0.6449E-014
 -12.4719    0.1450E-013
 -12.4644    0.3222E-013
 -12.4569    0.7083E-013
 -12.4494    0.1539E-012
 -12.4419    0.3308E-012
 -12.4344    0.7029E-012
 -12.4269    0.1477E-011
 -12.4194    0.3069E-011
 -12.4119    0.6304E-011
 -12.4044    0.1281E-010
 -12.3968    0.2572E-010
 -12.3893    0.5109E-010
 -12.3818    0.1004E-009
 -12.3743    0.1949E-009
 -12.3668    0.3742E-009
 -12.3593    0.7106E-009
 -12.3518    0.1334E-008
 -12.3443    0.2477E-008
 -12.3368    0.4547E-008
 -12.3293    0.8255E-008
 -12.3218    0.1482E-007
 -12.3143    0.2630E-007
 -12.3068    0.4616E-007
 -12.2993    0.8011E-007
 -12.2918    0.1375E-006
 -12.2843    0.2333E-006
 -12.2768    0.3915E-006
 -12.2693    0.6495E-006
 -12.2618    0.1066E-005
 -12.2543    0.1729E-005
 -12.2468    0.2774E-005
 -12.2393    0.4401E-005
 -12.2318    0.6905E-005
 -12.2243    0.1071E-004
 -12.2168    0.1644E-004
 -12.2093    0.2494E-004
 -12.2018    0.3741E-004
 -12.1943    0.5552E-004
 -12.1868    0.8147E-004
 -12.1793    0.1182E-003
 -12.1718    0.1697E-003
 -12.1643    0.2409E-003
 -12.1568    0.3382E-003
 -12.1493    0.4697E-003
 -12.1418    0.6453E-003
 -12.1343    0.8769E-003
 -12.1268    0.1179E-002
 -12.1193    0.1568E-002
 -12.1118    0.2064E-002
 -12.1043    0.2687E-002
 -12.0968    0.3463E-002
 -12.0893    0.4417E-002
 -12.0818    0.5577E-002
 -12.0743    0.6971E-002
 -12.0668    0.8628E-002
 -12.0593    0.1058E-001
 -12.0518    0.1285E-001
 -12.0443    0.1546E-001
 -12.0368    0.1844E-001
 -12.0293    0.2180E-001
 -12.0218    0.2557E-001
 -12.0143    0.2975E-001
 -12.0068    0.3436E-001
 -11.9992    0.3940E-001
 -11.9917    0.4488E-001
 -11.9842    0.5081E-001
 -11.9767    0.5720E-001
 -11.9692    0.6404E-001
 -11.9617    0.7136E-001
 -11.9542    0.7916E-001
 -11.9467    0.8746E-001
 -11.9392    0.9628E-001
 -11.9317    0.1056E+000
 -11.9242    0.1155E+000
 -11.9167    0.1260E+000
 -11.9092    0.1370E+000
 -11.9017    0.1485E+000
 -11.8942    0.1606E+000
 -11.8867    0.1733E+000
 -11.8792    0.1865E+000
 -11.8717    0.2001E+000
 -11.8642    0.2142E+000
 -11.8567    0.2288E+000
 -11.8492    0.2437E+000
 -11.8417    0.2590E+000
 -11.8342    0.2746E+000
 -11.8267    0.2905E+000
 -11.8192    0.3067E+000
 -11.8117    0.3231E+000
 -11.8042    0.3397E+000
 -11.7967    0.3566E+000
 -11.7892    0.3736E+000
 -11.7817    0.3907E+000
 -11.7742    0.4080E+000
 -11.7667    0.4253E+000
 -11.7592    0.4426E+000
 -11.7517    0.4597E+000
 -11.7442    0.4767E+000
 -11.7367    0.4933E+000
 -11.7292    0.5095E+000
 -11.7217    0.5251E+000
 -11.7142    0.5401E+000
 -11.7067    0.5543E+000
 -11.6992    0.5676E+000
 -11.6917    0.5800E+000
 -11.6842    0.5914E+000
 -11.6767    0.6018E+000
 -11.6692    0.6113E+000
 -11.6617    0.6198E+000
 -11.6542    0.6275E+000
 -11.6467    0.6343E+000
 -11.6392    0.6404E+000
 -11.6317    0.6458E+000
 -11.6242    0.6506E+000
 -11.6167    0.6549E+000
 -11.6092    0.6587E+000
 -11.6017    0.6621E+000
 -11.5941    0.6649E+000
 -11.5866    0.6672E+000
 -11.5791    0.6689E+000
 -11.5716    0.6700E+000
 -11.5641    0.6704E+000
 -11.5566    0.6701E+000
 -11.5491    0.6690E+000
 -11.5416    0.6672E+000
 -11.5341    0.6647E+000
 -11.5266    0.6616E+000
 -11.5191    0.6579E+000
 -11.5116    0.6538E+000
 -11.5041    0.6495E+000
 -11.4966    0.6450E+000
 -11.4891    0.6406E+000
 -11.4816    0.6363E+000
 -11.4741    0.6324E+000
 -11.4666    0.6288E+000
 -11.4591    0.6257E+000
 -11.4516    0.6230E+000
 -11.4441    0.6209E+000
 -11.4366    0.6193E+000
 -11.4291    0.6183E+000
 -11.4216    0.6178E+000
 -11.4141    0.6179E+000
 -11.4066    0.6188E+000
 -11.3991    0.6205E+000
 -11.3916    0.6232E+000
 -11.3841    0.6271E+000
 -11.3766    0.6324E+000
 -11.3691    0.6393E+000
 -11.3616    0.6478E+000
 -11.3541    0.6583E+000
 -11.3466    0.6707E+000
 -11.3391    0.6850E+000
 -11.3316    0.7011E+000
 -11.3241    0.7190E+000
 -11.3166    0.7383E+000
 -11.3091    0.7587E+000
 -11.3016    0.7799E+000
 -11.2941    0.8015E+000
 -11.2866    0.8231E+000
 -11.2791    0.8444E+000
 -11.2716    0.8650E+000
 -11.2641    0.8848E+000
 -11.2566    0.9035E+000
 -11.2491    0.9212E+000
 -11.2416    0.9378E+000
 -11.2341    0.9534E+000
 -11.2266    0.9683E+000
 -11.2191    0.9825E+000
 -11.2116    0.9962E+000
 -11.2041    0.1010E+001
 -11.1965    0.1023E+001
 -11.1890    0.1037E+001
 -11.1815    0.1050E+001
 -11.1740    0.1064E+001
 -11.1665    0.1077E+001
 -11.1590    0.1090E+001
 -11.1515    0.1103E+001
 -11.1440    0.1115E+001
 -11.1365    0.1126E+001
 -11.1290    0.1137E+001
 -11.1215    0.1146E+001
 -11.1140    0.1154E+001
 -11.1065    0.1160E+001
 -11.0990    0.1166E+001
 -11.0915    0.1170E+001
 -11.0840    0.1173E+001
 -11.0765    0.1175E+001
 -11.0690    0.1176E+001
 -11.0615    0.1175E+001
 -11.0540    0.1174E+001
 -11.0465    0.1172E+001
 -11.0390    0.1168E+001
 -11.0315    0.1163E+001
 -11.0240    0.1157E+001
 -11.0165    0.1150E+001
 -11.0090    0.1141E+001
 -11.0015    0.1131E+001
 -10.9940    0.1121E+001
 -10.9865    0.1109E+001
 -10.9790    0.1097E+001
 -10.9715    0.1086E+001
 -10.9640    0.1074E+001
 -10.9565    0.1064E+001
 -10.9490    0.1056E+001
 -10.9415    0.1049E+001
 -10.9340    0.1044E+001
 -10.9265    0.1042E+001
 -10.9190    0.1043E+001
 -10.9115    0.1045E+001
 -10.9040    0.1050E+001
 -10.8965    0.1057E+001
 -10.8890    0.1065E+001
 -10.8815    0.1073E+001
 -10.8740    0.1082E+001
 -10.8665    0.1090E+001
 -10.8590    0.1098E+001
 -10.8515    0.1104E+001
 -10.8440    0.1109E+001
 -10.8365    0.1112E+001
 -10.8290    0.1113E+001
 -10.8215    0.1113E+001
 -10.8140    0.1111E+001
 -10.8065    0.1108E+001
 -10.7989    0.1104E+001
 -10.7914    0.1099E+001
 -10.7839    0.1095E+001
 -10.7764    0.1091E+001
 -10.7689    0.1088E+001
 -10.7614    0.1086E+001
 -10.7539    0.1084E+001
 -10.7464    0.1085E+001
 -10.7389    0.1087E+001
 -10.7314    0.1090E+001
 -10.7239    0.1094E+001
 -10.7164    0.1100E+001
 -10.7089    0.1107E+001
 -10.7014    0.1115E+001
 -10.6939    0.1124E+001
 -10.6864    0.1134E+001
 -10.6789    0.1144E+001
 -10.6714    0.1153E+001
 -10.6639    0.1163E+001
 -10.6564    0.1172E+001
 -10.6489    0.1180E+001
 -10.6414    0.1186E+001
 -10.6339    0.1192E+001
 -10.6264    0.1195E+001
 -10.6189    0.1197E+001
 -10.6114    0.1197E+001
 -10.6039    0.1195E+001
 -10.5964    0.1192E+001
 -10.5889    0.1188E+001
 -10.5814    0.1184E+001
 -10.5739    0.1180E+001
 -10.5664    0.1177E+001
 -10.5589    0.1175E+001
 -10.5514    0.1176E+001
 -10.5439    0.1180E+001
 -10.5364    0.1189E+001
 -10.5289    0.1201E+001
 -10.5214    0.1218E+001
 -10.5139    0.1240E+001
 -10.5064    0.1267E+001
 -10.4989    0.1299E+001
 -10.4914    0.1335E+001
 -10.4839    0.1375E+001
 -10.4764    0.1418E+001
 -10.4689    0.1463E+001
 -10.4614    0.1509E+001
 -10.4539    0.1555E+001
 -10.4464    0.1601E+001
 -10.4389    0.1645E+001
 -10.4314    0.1687E+001
 -10.4239    0.1725E+001
 -10.4164    0.1760E+001
 -10.4089    0.1791E+001
 -10.4014    0.1817E+001
 -10.3938    0.1839E+001
 -10.3863    0.1857E+001
 -10.3788    0.1870E+001
 -10.3713    0.1880E+001
 -10.3638    0.1886E+001
 -10.3563    0.1888E+001
 -10.3488    0.1888E+001
 -10.3413    0.1885E+001
 -10.3338    0.1880E+001
 -10.3263    0.1873E+001
 -10.3188    0.1864E+001
 -10.3113    0.1853E+001
 -10.3038    0.1839E+001
 -10.2963    0.1824E+001
 -10.2888    0.1806E+001
 -10.2813    0.1785E+001
 -10.2738    0.1762E+001
 -10.2663    0.1735E+001
 -10.2588    0.1706E+001
 -10.2513    0.1674E+001
 -10.2438    0.1639E+001
 -10.2363    0.1601E+001
 -10.2288    0.1562E+001
 -10.2213    0.1520E+001
 -10.2138    0.1478E+001
 -10.2063    0.1435E+001
 -10.1988    0.1392E+001
 -10.1913    0.1350E+001
 -10.1838    0.1309E+001
 -10.1763    0.1271E+001
 -10.1688    0.1235E+001
 -10.1613    0.1202E+001
 -10.1538    0.1172E+001
 -10.1463    0.1147E+001
 -10.1388    0.1125E+001
 -10.1313    0.1108E+001
 -10.1238    0.1096E+001
 -10.1163    0.1088E+001
 -10.1088    0.1086E+001
 -10.1013    0.1088E+001
 -10.0938    0.1095E+001
 -10.0863    0.1108E+001
 -10.0788    0.1125E+001
 -10.0713    0.1147E+001
 -10.0638    0.1175E+001
 -10.0563    0.1207E+001
 -10.0488    0.1244E+001
 -10.0413    0.1286E+001
 -10.0338    0.1332E+001
 -10.0263    0.1382E+001
 -10.0188    0.1435E+001
 -10.0113    0.1492E+001
 -10.0038    0.1552E+001
  -9.9962    0.1613E+001
  -9.9887    0.1677E+001
  -9.9812    0.1742E+001
  -9.9737    0.1808E+001
  -9.9662    0.1873E+001
  -9.9587    0.1939E+001
  -9.9512    0.2003E+001
  -9.9437    0.2067E+001
  -9.9362    0.2128E+001
  -9.9287    0.2186E+001
  -9.9212    0.2242E+001
  -9.9137    0.2295E+001
  -9.9062    0.2344E+001
  -9.8987    0.2389E+001
  -9.8912    0.2430E+001
  -9.8837    0.2467E+001
  -9.8762    0.2499E+001
  -9.8687    0.2527E+001
  -9.8612    0.2549E+001
  -9.8537    0.2567E+001
  -9.8462    0.2580E+001
  -9.8387    0.2588E+001
  -9.8312    0.2591E+001
  -9.8237    0.2589E+001
  -9.8162    0.2582E+001
  -9.8087    0.2569E+001
  -9.8012    0.2551E+001
  -9.7937    0.2528E+001
  -9.7862    0.2500E+001
  -9.7787    0.2467E+001
  -9.7712    0.2430E+001
  -9.7637    0.2390E+001
  -9.7562    0.2347E+001
  -9.7487    0.2302E+001
  -9.7412    0.2258E+001
  -9.7337    0.2214E+001
  -9.7262    0.2174E+001
  -9.7187    0.2137E+001
  -9.7112    0.2106E+001
  -9.7037    0.2082E+001
  -9.6962    0.2064E+001
  -9.6887    0.2055E+001
  -9.6812    0.2055E+001
  -9.6737    0.2062E+001
  -9.6662    0.2076E+001
  -9.6587    0.2096E+001
  -9.6512    0.2121E+001
  -9.6437    0.2149E+001
  -9.6362    0.2178E+001
  -9.6287    0.2205E+001
  -9.6212    0.2229E+001
  -9.6137    0.2248E+001
  -9.6062    0.2261E+001
  -9.5986    0.2266E+001
  -9.5911    0.2263E+001
  -9.5836    0.2252E+001
  -9.5761    0.2233E+001
  -9.5686    0.2208E+001
  -9.5611    0.2177E+001
  -9.5536    0.2144E+001
  -9.5461    0.2109E+001
  -9.5386    0.2076E+001
  -9.5311    0.2046E+001
  -9.5236    0.2022E+001
  -9.5161    0.2006E+001
  -9.5086    0.1999E+001
  -9.5011    0.2003E+001
  -9.4936    0.2017E+001
  -9.4861    0.2042E+001
  -9.4786    0.2076E+001
  -9.4711    0.2120E+001
  -9.4636    0.2171E+001
  -9.4561    0.2227E+001
  -9.4486    0.2287E+001
  -9.4411    0.2347E+001
  -9.4336    0.2406E+001
  -9.4261    0.2462E+001
  -9.4186    0.2513E+001
  -9.4111    0.2557E+001
  -9.4036    0.2593E+001
  -9.3961    0.2622E+001
  -9.3886    0.2642E+001
  -9.3811    0.2654E+001
  -9.3736    0.2660E+001
  -9.3661    0.2660E+001
  -9.3586    0.2656E+001
  -9.3511    0.2648E+001
  -9.3436    0.2640E+001
  -9.3361    0.2631E+001
  -9.3286    0.2625E+001
  -9.3211    0.2622E+001
  -9.3136    0.2622E+001
  -9.3061    0.2627E+001
  -9.2986    0.2637E+001
  -9.2911    0.2651E+001
  -9.2836    0.2669E+001
  -9.2761    0.2691E+001
  -9.2686    0.2713E+001
  -9.2611    0.2736E+001
  -9.2536    0.2758E+001
  -9.2461    0.2777E+001
  -9.2386    0.2792E+001
  -9.2311    0.2800E+001
  -9.2236    0.2801E+001
  -9.2161    0.2794E+001
  -9.2086    0.2778E+001
  -9.2011    0.2752E+001
  -9.1935    0.2718E+001
  -9.1860    0.2675E+001
  -9.1785    0.2623E+001
  -9.1710    0.2565E+001
  -9.1635    0.2500E+001
  -9.1560    0.2431E+001
  -9.1485    0.2359E+001
  -9.1410    0.2285E+001
  -9.1335    0.2210E+001
  -9.1260    0.2136E+001
  -9.1185    0.2064E+001
  -9.1110    0.1995E+001
  -9.1035    0.1930E+001
  -9.0960    0.1869E+001
  -9.0885    0.1813E+001
  -9.0810    0.1762E+001
  -9.0735    0.1717E+001
  -9.0660    0.1678E+001
  -9.0585    0.1644E+001
  -9.0510    0.1617E+001
  -9.0435    0.1595E+001
  -9.0360    0.1579E+001
  -9.0285    0.1569E+001
  -9.0210    0.1565E+001
  -9.0135    0.1566E+001
  -9.0060    0.1573E+001
  -8.9985    0.1584E+001
  -8.9910    0.1600E+001
  -8.9835    0.1619E+001
  -8.9760    0.1643E+001
  -8.9685    0.1669E+001
  -8.9610    0.1698E+001
  -8.9535    0.1729E+001
  -8.9460    0.1761E+001
  -8.9385    0.1794E+001
  -8.9310    0.1827E+001
  -8.9235    0.1861E+001
  -8.9160    0.1894E+001
  -8.9085    0.1927E+001
  -8.9010    0.1960E+001
  -8.8935    0.1992E+001
  -8.8860    0.2024E+001
  -8.8785    0.2056E+001
  -8.8710    0.2088E+001
  -8.8635    0.2121E+001
  -8.8560    0.2154E+001
  -8.8485    0.2187E+001
  -8.8410    0.2222E+001
  -8.8335    0.2257E+001
  -8.8260    0.2293E+001
  -8.8185    0.2328E+001
  -8.8110    0.2364E+001
  -8.8035    0.2399E+001
  -8.7959    0.2432E+001
  -8.7884    0.2462E+001
  -8.7809    0.2489E+001
  -8.7734    0.2512E+001
  -8.7659    0.2529E+001
  -8.7584    0.2540E+001
  -8.7509    0.2543E+001
  -8.7434    0.2539E+001
  -8.7359    0.2527E+001
  -8.7284    0.2506E+001
  -8.7209    0.2477E+001
  -8.7134    0.2439E+001
  -8.7059    0.2393E+001
  -8.6984    0.2341E+001
  -8.6909    0.2281E+001
  -8.6834    0.2217E+001
  -8.6759    0.2149E+001
  -8.6684    0.2078E+001
  -8.6609    0.2006E+001
  -8.6534    0.1934E+001
  -8.6459    0.1863E+001
  -8.6384    0.1793E+001
  -8.6309    0.1726E+001
  -8.6234    0.1663E+001
  -8.6159    0.1603E+001
  -8.6084    0.1546E+001
  -8.6009    0.1493E+001
  -8.5934    0.1444E+001
  -8.5859    0.1397E+001
  -8.5784    0.1353E+001
  -8.5709    0.1312E+001
  -8.5634    0.1273E+001
  -8.5559    0.1236E+001
  -8.5484    0.1202E+001
  -8.5409    0.1169E+001
  -8.5334    0.1140E+001
  -8.5259    0.1114E+001
  -8.5184    0.1092E+001
  -8.5109    0.1075E+001
  -8.5034    0.1063E+001
  -8.4959    0.1057E+001
  -8.4884    0.1058E+001
  -8.4809    0.1066E+001
  -8.4734    0.1080E+001
  -8.4659    0.1102E+001
  -8.4584    0.1129E+001
  -8.4509    0.1163E+001
  -8.4434    0.1201E+001
  -8.4359    0.1243E+001
  -8.4284    0.1288E+001
  -8.4209    0.1334E+001
  -8.4134    0.1380E+001
  -8.4059    0.1424E+001
  -8.3983    0.1465E+001
  -8.3908    0.1502E+001
  -8.3833    0.1534E+001
  -8.3758    0.1561E+001
  -8.3683    0.1581E+001
  -8.3608    0.1594E+001
  -8.3533    0.1601E+001
  -8.3458    0.1602E+001
  -8.3383    0.1597E+001
  -8.3308    0.1588E+001
  -8.3233    0.1574E+001
  -8.3158    0.1558E+001
  -8.3083    0.1540E+001
  -8.3008    0.1521E+001
  -8.2933    0.1502E+001
  -8.2858    0.1484E+001
  -8.2783    0.1468E+001
  -8.2708    0.1455E+001
  -8.2633    0.1444E+001
  -8.2558    0.1436E+001
  -8.2483    0.1430E+001
  -8.2408    0.1426E+001
  -8.2333    0.1424E+001
  -8.2258    0.1423E+001
  -8.2183    0.1422E+001
  -8.2108    0.1420E+001
  -8.2033    0.1417E+001
  -8.1958    0.1411E+001
  -8.1883    0.1403E+001
  -8.1808    0.1392E+001
  -8.1733    0.1377E+001
  -8.1658    0.1359E+001
  -8.1583    0.1338E+001
  -8.1508    0.1313E+001
  -8.1433    0.1286E+001
  -8.1358    0.1257E+001
  -8.1283    0.1227E+001
  -8.1208    0.1195E+001
  -8.1133    0.1162E+001
  -8.1058    0.1129E+001
  -8.0983    0.1096E+001
  -8.0908    0.1062E+001
  -8.0833    0.1029E+001
  -8.0758    0.9954E+000
  -8.0683    0.9614E+000
  -8.0608    0.9267E+000
  -8.0533    0.8912E+000
  -8.0458    0.8546E+000
  -8.0383    0.8168E+000
  -8.0308    0.7776E+000
  -8.0233    0.7371E+000
  -8.0158    0.6954E+000
  -8.0083    0.6529E+000
  -8.0008    0.6099E+000
  -7.9932    0.5668E+000
  -7.9857    0.5243E+000
  -7.9782    0.4830E+000
  -7.9707    0.4434E+000
  -7.9632    0.4063E+000
  -7.9557    0.3722E+000
  -7.9482    0.3416E+000
  -7.9407    0.3150E+000
  -7.9332    0.2928E+000
  -7.9257    0.2751E+000
  -7.9182    0.2621E+000
  -7.9107    0.2538E+000
  -7.9032    0.2501E+000
  -7.8957    0.2509E+000
  -7.8882    0.2559E+000
  -7.8807    0.2648E+000
  -7.8732    0.2771E+000
  -7.8657    0.2926E+000
  -7.8582    0.3108E+000
  -7.8507    0.3312E+000
  -7.8432    0.3534E+000
  -7.8357    0.3771E+000
  -7.8282    0.4018E+000
  -7.8207    0.4273E+000
  -7.8132    0.4532E+000
  -7.8057    0.4793E+000
  -7.7982    0.5054E+000
  -7.7907    0.5314E+000
  -7.7832    0.5571E+000
  -7.7757    0.5824E+000
  -7.7682    0.6074E+000
  -7.7607    0.6320E+000
  -7.7532    0.6561E+000
  -7.7457    0.6798E+000
  -7.7382    0.7030E+000
  -7.7307    0.7255E+000
  -7.7232    0.7474E+000
  -7.7157    0.7683E+000
  -7.7082    0.7880E+000
  -7.7007    0.8063E+000
  -7.6932    0.8228E+000
  -7.6857    0.8371E+000
  -7.6782    0.8486E+000
  -7.6707    0.8571E+000
  -7.6632    0.8618E+000
  -7.6557    0.8626E+000
  -7.6482    0.8588E+000
  -7.6407    0.8502E+000
  -7.6332    0.8367E+000
  -7.6257    0.8181E+000
  -7.6182    0.7944E+000
  -7.6107    0.7660E+000
  -7.6032    0.7332E+000
  -7.5956    0.6966E+000
  -7.5881    0.6568E+000
  -7.5806    0.6146E+000
  -7.5731    0.5710E+000
  -7.5656    0.5269E+000
  -7.5581    0.4832E+000
  -7.5506    0.4410E+000
  -7.5431    0.4012E+000
  -7.5356    0.3645E+000
  -7.5281    0.3318E+000
  -7.5206    0.3037E+000
  -7.5131    0.2806E+000
  -7.5056    0.2629E+000
  -7.4981    0.2508E+000
  -7.4906    0.2444E+000
  -7.4831    0.2435E+000
  -7.4756    0.2479E+000
  -7.4681    0.2574E+000
  -7.4606    0.2714E+000
  -7.4531    0.2896E+000
  -7.4456    0.3113E+000
  -7.4381    0.3360E+000
  -7.4306    0.3629E+000
  -7.4231    0.3914E+000
  -7.4156    0.4209E+000
  -7.4081    0.4507E+000
  -7.4006    0.4803E+000
  -7.3931    0.5092E+000
  -7.3856    0.5368E+000
  -7.3781    0.5629E+000
  -7.3706    0.5871E+000
  -7.3631    0.6095E+000
  -7.3556    0.6299E+000
  -7.3481    0.6484E+000
  -7.3406    0.6651E+000
  -7.3331    0.6805E+000
  -7.3256    0.6949E+000
  -7.3181    0.7087E+000
  -7.3106    0.7226E+000
  -7.3031    0.7370E+000
  -7.2956    0.7527E+000
  -7.2881    0.7704E+000
  -7.2806    0.7907E+000
  -7.2731    0.8144E+000
  -7.2656    0.8422E+000
  -7.2581    0.8748E+000
  -7.2506    0.9127E+000
  -7.2431    0.9565E+000
  -7.2356    0.1007E+001
  -7.2281    0.1063E+001
  -7.2206    0.1126E+001
  -7.2131    0.1195E+001
  -7.2056    0.1270E+001
  -7.1980    0.1349E+001
  -7.1905    0.1432E+001
  -7.1830    0.1518E+001
  -7.1755    0.1604E+001
  -7.1680    0.1688E+001
  -7.1605    0.1769E+001
  -7.1530    0.1844E+001
  -7.1455    0.1911E+001
  -7.1380    0.1968E+001
  -7.1305    0.2015E+001
  -7.1230    0.2048E+001
  -7.1155    0.2068E+001
  -7.1080    0.2074E+001
  -7.1005    0.2067E+001
  -7.0930    0.2046E+001
  -7.0855    0.2014E+001
  -7.0780    0.1973E+001
  -7.0705    0.1923E+001
  -7.0630    0.1868E+001
  -7.0555    0.1811E+001
  -7.0480    0.1754E+001
  -7.0405    0.1699E+001
  -7.0330    0.1650E+001
  -7.0255    0.1608E+001
  -7.0180    0.1576E+001
  -7.0105    0.1555E+001
  -7.0030    0.1547E+001
  -6.9955    0.1552E+001
  -6.9880    0.1571E+001
  -6.9805    0.1605E+001
  -6.9730    0.1653E+001
  -6.9655    0.1715E+001
  -6.9580    0.1790E+001
  -6.9505    0.1878E+001
  -6.9430    0.1979E+001
  -6.9355    0.2090E+001
  -6.9280    0.2211E+001
  -6.9205    0.2341E+001
  -6.9130    0.2478E+001
  -6.9055    0.2620E+001
  -6.8980    0.2767E+001
  -6.8905    0.2916E+001
  -6.8830    0.3066E+001
  -6.8755    0.3214E+001
  -6.8680    0.3359E+001
  -6.8605    0.3498E+001
  -6.8530    0.3630E+001
  -6.8455    0.3752E+001
  -6.8380    0.3862E+001
  -6.8305    0.3959E+001
  -6.8230    0.4042E+001
  -6.8155    0.4108E+001
  -6.8080    0.4158E+001
  -6.8005    0.4190E+001
  -6.7929    0.4205E+001
  -6.7854    0.4203E+001
  -6.7779    0.4184E+001
  -6.7704    0.4151E+001
  -6.7629    0.4103E+001
  -6.7554    0.4044E+001
  -6.7479    0.3974E+001
  -6.7404    0.3897E+001
  -6.7329    0.3813E+001
  -6.7254    0.3726E+001
  -6.7179    0.3638E+001
  -6.7104    0.3550E+001
  -6.7029    0.3464E+001
  -6.6954    0.3383E+001
  -6.6879    0.3307E+001
  -6.6804    0.3239E+001
  -6.6729    0.3179E+001
  -6.6654    0.3128E+001
  -6.6579    0.3086E+001
  -6.6504    0.3054E+001
  -6.6429    0.3031E+001
  -6.6354    0.3017E+001
  -6.6279    0.3011E+001
  -6.6204    0.3012E+001
  -6.6129    0.3018E+001
  -6.6054    0.3029E+001
  -6.5979    0.3041E+001
  -6.5904    0.3053E+001
  -6.5829    0.3064E+001
  -6.5754    0.3073E+001
  -6.5679    0.3076E+001
  -6.5604    0.3075E+001
  -6.5529    0.3068E+001
  -6.5454    0.3054E+001
  -6.5379    0.3035E+001
  -6.5304    0.3012E+001
  -6.5229    0.2984E+001
  -6.5154    0.2955E+001
  -6.5079    0.2926E+001
  -6.5004    0.2900E+001
  -6.4929    0.2878E+001
  -6.4854    0.2863E+001
  -6.4779    0.2858E+001
  -6.4704    0.2863E+001
  -6.4629    0.2879E+001
  -6.4554    0.2908E+001
  -6.4479    0.2950E+001
  -6.4404    0.3002E+001
  -6.4329    0.3064E+001
  -6.4254    0.3134E+001
  -6.4179    0.3209E+001
  -6.4104    0.3285E+001
  -6.4029    0.3359E+001
  -6.3953    0.3428E+001
  -6.3878    0.3487E+001
  -6.3803    0.3533E+001
  -6.3728    0.3563E+001
  -6.3653    0.3575E+001
  -6.3578    0.3567E+001
  -6.3503    0.3537E+001
  -6.3428    0.3485E+001
  -6.3353    0.3411E+001
  -6.3278    0.3316E+001
  -6.3203    0.3202E+001
  -6.3128    0.3071E+001
  -6.3053    0.2927E+001
  -6.2978    0.2771E+001
  -6.2903    0.2608E+001
  -6.2828    0.2440E+001
  -6.2753    0.2272E+001
  -6.2678    0.2106E+001
  -6.2603    0.1946E+001
  -6.2528    0.1795E+001
  -6.2453    0.1654E+001
  -6.2378    0.1525E+001
  -6.2303    0.1412E+001
  -6.2228    0.1313E+001
  -6.2153    0.1231E+001
  -6.2078    0.1165E+001
  -6.2003    0.1115E+001
  -6.1928    0.1081E+001
  -6.1853    0.1062E+001
  -6.1778    0.1057E+001
  -6.1703    0.1064E+001
  -6.1628    0.1082E+001
  -6.1553    0.1109E+001
  -6.1478    0.1144E+001
  -6.1403    0.1185E+001
  -6.1328    0.1231E+001
  -6.1253    0.1280E+001
  -6.1178    0.1331E+001
  -6.1103    0.1382E+001
  -6.1028    0.1432E+001
  -6.0953    0.1480E+001
  -6.0878    0.1525E+001
  -6.0803    0.1567E+001
  -6.0728    0.1604E+001
  -6.0653    0.1637E+001
  -6.0578    0.1663E+001
  -6.0503    0.1683E+001
  -6.0428    0.1696E+001
  -6.0353    0.1702E+001
  -6.0278    0.1701E+001
  -6.0203    0.1692E+001
  -6.0128    0.1676E+001
  -6.0053    0.1654E+001
  -5.9977    0.1625E+001
  -5.9902    0.1589E+001
  -5.9827    0.1549E+001
  -5.9752    0.1503E+001
  -5.9677    0.1454E+001
  -5.9602    0.1402E+001
  -5.9527    0.1348E+001
  -5.9452    0.1292E+001
  -5.9377    0.1236E+001
  -5.9302    0.1180E+001
  -5.9227    0.1125E+001
  -5.9152    0.1071E+001
  -5.9077    0.1020E+001
  -5.9002    0.9707E+000
  -5.8927    0.9249E+000
  -5.8852    0.8826E+000
  -5.8777    0.8442E+000
  -5.8702    0.8101E+000
  -5.8627    0.7808E+000
  -5.8552    0.7567E+000
  -5.8477    0.7382E+000
  -5.8402    0.7257E+000
  -5.8327    0.7196E+000
  -5.8252    0.7202E+000
  -5.8177    0.7279E+000
  -5.8102    0.7426E+000
  -5.8027    0.7645E+000
  -5.7952    0.7933E+000
  -5.7877    0.8288E+000
  -5.7802    0.8704E+000
  -5.7727    0.9174E+000
  -5.7652    0.9689E+000
  -5.7577    0.1024E+001
  -5.7502    0.1081E+001
  -5.7427    0.1139E+001
  -5.7352    0.1196E+001
  -5.7277    0.1251E+001
  -5.7202    0.1303E+001
  -5.7127    0.1349E+001
  -5.7052    0.1390E+001
  -5.6977    0.1423E+001
  -5.6902    0.1447E+001
  -5.6827    0.1463E+001
  -5.6752    0.1470E+001
  -5.6677    0.1468E+001
  -5.6602    0.1458E+001
  -5.6527    0.1439E+001
  -5.6452    0.1414E+001
  -5.6377    0.1384E+001
  -5.6302    0.1349E+001
  -5.6227    0.1313E+001
  -5.6152    0.1276E+001
  -5.6077    0.1240E+001
  -5.6002    0.1207E+001
  -5.5926    0.1178E+001
  -5.5851    0.1155E+001
  -5.5776    0.1139E+001
  -5.5701    0.1129E+001
  -5.5626    0.1127E+001
  -5.5551    0.1132E+001
  -5.5476    0.1144E+001
  -5.5401    0.1163E+001
  -5.5326    0.1186E+001
  -5.5251    0.1213E+001
  -5.5176    0.1244E+001
  -5.5101    0.1276E+001
  -5.5026    0.1308E+001
  -5.4951    0.1340E+001
  -5.4876    0.1370E+001
  -5.4801    0.1399E+001
  -5.4726    0.1424E+001
  -5.4651    0.1448E+001
  -5.4576    0.1468E+001
  -5.4501    0.1487E+001
  -5.4426    0.1504E+001
  -5.4351    0.1521E+001
  -5.4276    0.1539E+001
  -5.4201    0.1558E+001
  -5.4126    0.1580E+001
  -5.4051    0.1605E+001
  -5.3976    0.1635E+001
  -5.3901    0.1671E+001
  -5.3826    0.1711E+001
  -5.3751    0.1756E+001
  -5.3676    0.1806E+001
  -5.3601    0.1860E+001
  -5.3526    0.1916E+001
  -5.3451    0.1972E+001
  -5.3376    0.2027E+001
  -5.3301    0.2079E+001
  -5.3226    0.2125E+001
  -5.3151    0.2163E+001
  -5.3076    0.2191E+001
  -5.3001    0.2207E+001
  -5.2926    0.2210E+001
  -5.2851    0.2198E+001
  -5.2776    0.2170E+001
  -5.2701    0.2127E+001
  -5.2626    0.2069E+001
  -5.2551    0.1997E+001
  -5.2476    0.1911E+001
  -5.2401    0.1814E+001
  -5.2326    0.1707E+001
  -5.2251    0.1593E+001
  -5.2176    0.1474E+001
  -5.2101    0.1353E+001
  -5.2026    0.1232E+001
  -5.1950    0.1114E+001
  -5.1875    0.9995E+000
  -5.1800    0.8914E+000
  -5.1725    0.7908E+000
  -5.1650    0.6989E+000
  -5.1575    0.6164E+000
  -5.1500    0.5437E+000
  -5.1425    0.4810E+000
  -5.1350    0.4279E+000
  -5.1275    0.3842E+000
  -5.1200    0.3492E+000
  -5.1125    0.3222E+000
  -5.1050    0.3023E+000
  -5.0975    0.2887E+000
  -5.0900    0.2806E+000
  -5.0825    0.2771E+000
  -5.0750    0.2774E+000
  -5.0675    0.2809E+000
  -5.0600    0.2871E+000
  -5.0525    0.2955E+000
  -5.0450    0.3058E+000
  -5.0375    0.3179E+000
  -5.0300    0.3317E+000
  -5.0225    0.3473E+000
  -5.0150    0.3649E+000
  -5.0075    0.3846E+000
  -5.0000    0.4069E+000
  -4.9925    0.4320E+000
  -4.9850    0.4600E+000
  -4.9775    0.4914E+000
  -4.9700    0.5260E+000
  -4.9625    0.5640E+000
  -4.9550    0.6051E+000
  -4.9475    0.6490E+000
  -4.9400    0.6951E+000
  -4.9325    0.7426E+000
  -4.9250    0.7909E+000
  -4.9175    0.8387E+000
  -4.9100    0.8849E+000
  -4.9025    0.9285E+000
  -4.8950    0.9682E+000
  -4.8875    0.1003E+001
  -4.8800    0.1032E+001
  -4.8725    0.1054E+001
  -4.8650    0.1068E+001
  -4.8575    0.1075E+001
  -4.8500    0.1074E+001
  -4.8425    0.1065E+001
  -4.8350    0.1050E+001
  -4.8275    0.1028E+001
  -4.8200    0.1000E+001
  -4.8125    0.9682E+000
  -4.8050    0.9329E+000
  -4.7974    0.8955E+000
  -4.7899    0.8570E+000
  -4.7824    0.8186E+000
  -4.7749    0.7812E+000
  -4.7674    0.7454E+000
  -4.7599    0.7119E+000
  -4.7524    0.6811E+000
  -4.7449    0.6530E+000
  -4.7374    0.6279E+000
  -4.7299    0.6054E+000
  -4.7224    0.5854E+000
  -4.7149    0.5675E+000
  -4.7074    0.5513E+000
  -4.6999    0.5364E+000
  -4.6924    0.5224E+000
  -4.6849    0.5090E+000
  -4.6774    0.4959E+000
  -4.6699    0.4829E+000
  -4.6624    0.4698E+000
  -4.6549    0.4568E+000
  -4.6474    0.4437E+000
  -4.6399    0.4309E+000
  -4.6324    0.4186E+000
  -4.6249    0.4072E+000
  -4.6174    0.3970E+000
  -4.6099    0.3885E+000
  -4.6024    0.3823E+000
  -4.5949    0.3788E+000
  -4.5874    0.3788E+000
  -4.5799    0.3826E+000
  -4.5724    0.3911E+000
  -4.5649    0.4046E+000
  -4.5574    0.4238E+000
  -4.5499    0.4493E+000
  -4.5424    0.4815E+000
  -4.5349    0.5209E+000
  -4.5274    0.5677E+000
  -4.5199    0.6223E+000
  -4.5124    0.6846E+000
  -4.5049    0.7547E+000
  -4.4974    0.8322E+000
  -4.4899    0.9166E+000
  -4.4824    0.1007E+001
  -4.4749    0.1103E+001
  -4.4674    0.1203E+001
  -4.4599    0.1305E+001
  -4.4524    0.1409E+001
  -4.4449    0.1512E+001
  -4.4374    0.1613E+001
  -4.4299    0.1711E+001
  -4.4224    0.1803E+001
  -4.4149    0.1889E+001
  -4.4074    0.1967E+001
  -4.3998    0.2036E+001
  -4.3923    0.2097E+001
  -4.3848    0.2149E+001
  -4.3773    0.2193E+001
  -4.3698    0.2228E+001
  -4.3623    0.2257E+001
  -4.3548    0.2279E+001
  -4.3473    0.2297E+001
  -4.3398    0.2312E+001
  -4.3323    0.2325E+001
  -4.3248    0.2338E+001
  -4.3173    0.2351E+001
  -4.3098    0.2366E+001
  -4.3023    0.2383E+001
  -4.2948    0.2402E+001
  -4.2873    0.2425E+001
  -4.2798    0.2450E+001
  -4.2723    0.2478E+001
  -4.2648    0.2507E+001
  -4.2573    0.2538E+001
  -4.2498    0.2568E+001
  -4.2423    0.2598E+001
  -4.2348    0.2626E+001
  -4.2273    0.2651E+001
  -4.2198    0.2674E+001
  -4.2123    0.2693E+001
  -4.2048    0.2708E+001
  -4.1973    0.2718E+001
  -4.1898    0.2725E+001
  -4.1823    0.2729E+001
  -4.1748    0.2730E+001
  -4.1673    0.2729E+001
  -4.1598    0.2727E+001
  -4.1523    0.2725E+001
  -4.1448    0.2725E+001
  -4.1373    0.2727E+001
  -4.1298    0.2733E+001
  -4.1223    0.2744E+001
  -4.1148    0.2761E+001
  -4.1073    0.2786E+001
  -4.0998    0.2818E+001
  -4.0923    0.2859E+001
  -4.0848    0.2909E+001
  -4.0773    0.2967E+001
  -4.0698    0.3035E+001
  -4.0623    0.3110E+001
  -4.0548    0.3193E+001
  -4.0473    0.3283E+001
  -4.0398    0.3378E+001
  -4.0323    0.3477E+001
  -4.0248    0.3578E+001
  -4.0173    0.3679E+001
  -4.0098    0.3778E+001
  -4.0023    0.3874E+001
  -3.9947    0.3965E+001
  -3.9872    0.4047E+001
  -3.9797    0.4120E+001
  -3.9722    0.4182E+001
  -3.9647    0.4230E+001
  -3.9572    0.4265E+001
  -3.9497    0.4285E+001
  -3.9422    0.4289E+001
  -3.9347    0.4278E+001
  -3.9272    0.4252E+001
  -3.9197    0.4212E+001
  -3.9122    0.4159E+001
  -3.9047    0.4094E+001
  -3.8972    0.4021E+001
  -3.8897    0.3940E+001
  -3.8822    0.3855E+001
  -3.8747    0.3767E+001
  -3.8672    0.3680E+001
  -3.8597    0.3595E+001
  -3.8522    0.3514E+001
  -3.8447    0.3438E+001
  -3.8372    0.3370E+001
  -3.8297    0.3308E+001
  -3.8222    0.3254E+001
  -3.8147    0.3207E+001
  -3.8072    0.3166E+001
  -3.7997    0.3131E+001
  -3.7922    0.3100E+001
  -3.7847    0.3072E+001
  -3.7772    0.3046E+001
  -3.7697    0.3020E+001
  -3.7622    0.2994E+001
  -3.7547    0.2966E+001
  -3.7472    0.2936E+001
  -3.7397    0.2904E+001
  -3.7322    0.2871E+001
  -3.7247    0.2835E+001
  -3.7172    0.2799E+001
  -3.7097    0.2763E+001
  -3.7022    0.2728E+001
  -3.6947    0.2695E+001
  -3.6872    0.2667E+001
  -3.6797    0.2644E+001
  -3.6722    0.2628E+001
  -3.6647    0.2619E+001
  -3.6572    0.2620E+001
  -3.6497    0.2631E+001
  -3.6422    0.2653E+001
  -3.6347    0.2687E+001
  -3.6272    0.2731E+001
  -3.6197    0.2787E+001
  -3.6122    0.2853E+001
  -3.6047    0.2927E+001
  -3.5971    0.3010E+001
  -3.5896    0.3098E+001
  -3.5821    0.3190E+001
  -3.5746    0.3283E+001
  -3.5671    0.3376E+001
  -3.5596    0.3466E+001
  -3.5521    0.3550E+001
  -3.5446    0.3627E+001
  -3.5371    0.3696E+001
  -3.5296    0.3755E+001
  -3.5221    0.3802E+001
  -3.5146    0.3838E+001
  -3.5071    0.3862E+001
  -3.4996    0.3874E+001
  -3.4921    0.3875E+001
  -3.4846    0.3866E+001
  -3.4771    0.3846E+001
  -3.4696    0.3817E+001
  -3.4621    0.3780E+001
  -3.4546    0.3735E+001
  -3.4471    0.3684E+001
  -3.4396    0.3627E+001
  -3.4321    0.3565E+001
  -3.4246    0.3498E+001
  -3.4171    0.3428E+001
  -3.4096    0.3354E+001
  -3.4021    0.3278E+001
  -3.3946    0.3200E+001
  -3.3871    0.3121E+001
  -3.3796    0.3041E+001
  -3.3721    0.2962E+001
  -3.3646    0.2885E+001
  -3.3571    0.2810E+001
  -3.3496    0.2739E+001
  -3.3421    0.2673E+001
  -3.3346    0.2613E+001
  -3.3271    0.2560E+001
  -3.3196    0.2515E+001
  -3.3121    0.2478E+001
  -3.3046    0.2450E+001
  -3.2971    0.2431E+001
  -3.2896    0.2421E+001
  -3.2821    0.2421E+001
  -3.2746    0.2428E+001
  -3.2671    0.2444E+001
  -3.2596    0.2466E+001
  -3.2521    0.2494E+001
  -3.2446    0.2527E+001
  -3.2371    0.2563E+001
  -3.2296    0.2602E+001
  -3.2221    0.2641E+001
  -3.2146    0.2681E+001
  -3.2071    0.2719E+001
  -3.1995    0.2756E+001
  -3.1920    0.2791E+001
  -3.1845    0.2823E+001
  -3.1770    0.2853E+001
  -3.1695    0.2880E+001
  -3.1620    0.2904E+001
  -3.1545    0.2925E+001
  -3.1470    0.2945E+001
  -3.1395    0.2963E+001
  -3.1320    0.2979E+001
  -3.1245    0.2995E+001
  -3.1170    0.3010E+001
  -3.1095    0.3026E+001
  -3.1020    0.3042E+001
  -3.0945    0.3060E+001
  -3.0870    0.3080E+001
  -3.0795    0.3102E+001
  -3.0720    0.3127E+001
  -3.0645    0.3155E+001
  -3.0570    0.3188E+001
  -3.0495    0.3225E+001
  -3.0420    0.3266E+001
  -3.0345    0.3312E+001
  -3.0270    0.3364E+001
  -3.0195    0.3420E+001
  -3.0120    0.3480E+001
  -3.0045    0.3544E+001
  -2.9970    0.3611E+001
  -2.9895    0.3681E+001
  -2.9820    0.3751E+001
  -2.9745    0.3821E+001
  -2.9670    0.3891E+001
  -2.9595    0.3958E+001
  -2.9520    0.4021E+001
  -2.9445    0.4081E+001
  -2.9370    0.4136E+001
  -2.9295    0.4186E+001
  -2.9220    0.4232E+001
  -2.9145    0.4272E+001
  -2.9070    0.4309E+001
  -2.8995    0.4343E+001
  -2.8920    0.4375E+001
  -2.8845    0.4406E+001
  -2.8770    0.4438E+001
  -2.8695    0.4471E+001
  -2.8620    0.4507E+001
  -2.8545    0.4547E+001
  -2.8470    0.4590E+001
  -2.8395    0.4637E+001
  -2.8320    0.4688E+001
  -2.8245    0.4742E+001
  -2.8170    0.4798E+001
  -2.8095    0.4855E+001
  -2.8020    0.4912E+001
  -2.7944    0.4966E+001
  -2.7869    0.5017E+001
  -2.7794    0.5063E+001
  -2.7719    0.5102E+001
  -2.7644    0.5133E+001
  -2.7569    0.5156E+001
  -2.7494    0.5171E+001
  -2.7419    0.5177E+001
  -2.7344    0.5175E+001
  -2.7269    0.5166E+001
  -2.7194    0.5152E+001
  -2.7119    0.5134E+001
  -2.7044    0.5114E+001
  -2.6969    0.5093E+001
  -2.6894    0.5074E+001
  -2.6819    0.5058E+001
  -2.6744    0.5046E+001
  -2.6669    0.5039E+001
  -2.6594    0.5037E+001
  -2.6519    0.5041E+001
  -2.6444    0.5050E+001
  -2.6369    0.5063E+001
  -2.6294    0.5078E+001
  -2.6219    0.5093E+001
  -2.6144    0.5107E+001
  -2.6069    0.5117E+001
  -2.5994    0.5120E+001
  -2.5919    0.5115E+001
  -2.5844    0.5099E+001
  -2.5769    0.5072E+001
  -2.5694    0.5031E+001
  -2.5619    0.4976E+001
  -2.5544    0.4906E+001
  -2.5469    0.4824E+001
  -2.5394    0.4729E+001
  -2.5319    0.4624E+001
  -2.5244    0.4509E+001
  -2.5169    0.4389E+001
  -2.5094    0.4265E+001
  -2.5019    0.4141E+001
  -2.4944    0.4018E+001
  -2.4869    0.3901E+001
  -2.4794    0.3791E+001
  -2.4719    0.3689E+001
  -2.4644    0.3599E+001
  -2.4569    0.3520E+001
  -2.4494    0.3453E+001
  -2.4419    0.3399E+001
  -2.4344    0.3356E+001
  -2.4269    0.3324E+001
  -2.4194    0.3302E+001
  -2.4119    0.3288E+001
  -2.4044    0.3280E+001
  -2.3968    0.3278E+001
  -2.3893    0.3280E+001
  -2.3818    0.3284E+001
  -2.3743    0.3291E+001
  -2.3668    0.3299E+001
  -2.3593    0.3310E+001
  -2.3518    0.3322E+001
  -2.3443    0.3337E+001
  -2.3368    0.3356E+001
  -2.3293    0.3380E+001
  -2.3218    0.3409E+001
  -2.3143    0.3446E+001
  -2.3068    0.3491E+001
  -2.2993    0.3544E+001
  -2.2918    0.3606E+001
  -2.2843    0.3678E+001
  -2.2768    0.3758E+001
  -2.2693    0.3845E+001
  -2.2618    0.3940E+001
  -2.2543    0.4039E+001
  -2.2468    0.4142E+001
  -2.2393    0.4246E+001
  -2.2318    0.4348E+001
  -2.2243    0.4447E+001
  -2.2168    0.4541E+001
  -2.2093    0.4627E+001
  -2.2018    0.4703E+001
  -2.1943    0.4767E+001
  -2.1868    0.4819E+001
  -2.1793    0.4857E+001
  -2.1718    0.4880E+001
  -2.1643    0.4889E+001
  -2.1568    0.4882E+001
  -2.1493    0.4862E+001
  -2.1418    0.4828E+001
  -2.1343    0.4781E+001
  -2.1268    0.4723E+001
  -2.1193    0.4655E+001
  -2.1118    0.4580E+001
  -2.1043    0.4497E+001
  -2.0968    0.4410E+001
  -2.0893    0.4320E+001
  -2.0818    0.4227E+001
  -2.0743    0.4135E+001
  -2.0668    0.4042E+001
  -2.0593    0.3952E+001
  -2.0518    0.3863E+001
  -2.0443    0.3777E+001
  -2.0368    0.3694E+001
  -2.0293    0.3614E+001
  -2.0218    0.3538E+001
  -2.0143    0.3465E+001
  -2.0068    0.3397E+001
  -1.9992    0.3333E+001
  -1.9917    0.3273E+001
  -1.9842    0.3219E+001
  -1.9767    0.3171E+001
  -1.9692    0.3130E+001
  -1.9617    0.3096E+001
  -1.9542    0.3072E+001
  -1.9467    0.3057E+001
  -1.9392    0.3054E+001
  -1.9317    0.3063E+001
  -1.9242    0.3085E+001
  -1.9167    0.3121E+001
  -1.9092    0.3172E+001
  -1.9017    0.3236E+001
  -1.8942    0.3315E+001
  -1.8867    0.3408E+001
  -1.8792    0.3513E+001
  -1.8717    0.3628E+001
  -1.8642    0.3753E+001
  -1.8567    0.3883E+001
  -1.8492    0.4016E+001
  -1.8417    0.4148E+001
  -1.8342    0.4278E+001
  -1.8267    0.4400E+001
  -1.8192    0.4511E+001
  -1.8117    0.4609E+001
  -1.8042    0.4691E+001
  -1.7967    0.4754E+001
  -1.7892    0.4797E+001
  -1.7817    0.4819E+001
  -1.7742    0.4819E+001
  -1.7667    0.4799E+001
  -1.7592    0.4759E+001
  -1.7517    0.4702E+001
  -1.7442    0.4630E+001
  -1.7367    0.4545E+001
  -1.7292    0.4452E+001
  -1.7217    0.4352E+001
  -1.7142    0.4250E+001
  -1.7067    0.4147E+001
  -1.6992    0.4048E+001
  -1.6917    0.3953E+001
  -1.6842    0.3865E+001
  -1.6767    0.3786E+001
  -1.6692    0.3716E+001
  -1.6617    0.3655E+001
  -1.6542    0.3605E+001
  -1.6467    0.3564E+001
  -1.6392    0.3532E+001
  -1.6317    0.3510E+001
  -1.6242    0.3494E+001
  -1.6167    0.3486E+001
  -1.6092    0.3484E+001
  -1.6017    0.3486E+001
  -1.5941    0.3493E+001
  -1.5866    0.3503E+001
  -1.5791    0.3515E+001
  -1.5716    0.3529E+001
  -1.5641    0.3544E+001
  -1.5566    0.3559E+001
  -1.5491    0.3573E+001
  -1.5416    0.3586E+001
  -1.5341    0.3598E+001
  -1.5266    0.3609E+001
  -1.5191    0.3617E+001
  -1.5116    0.3623E+001
  -1.5041    0.3626E+001
  -1.4966    0.3626E+001
  -1.4891    0.3624E+001
  -1.4816    0.3619E+001
  -1.4741    0.3611E+001
  -1.4666    0.3600E+001
  -1.4591    0.3586E+001
  -1.4516    0.3569E+001
  -1.4441    0.3549E+001
  -1.4366    0.3526E+001
  -1.4291    0.3500E+001
  -1.4216    0.3470E+001
  -1.4141    0.3438E+001
  -1.4066    0.3402E+001
  -1.3991    0.3364E+001
  -1.3916    0.3323E+001
  -1.3841    0.3279E+001
  -1.3766    0.3234E+001
  -1.3691    0.3186E+001
  -1.3616    0.3137E+001
  -1.3541    0.3087E+001
  -1.3466    0.3037E+001
  -1.3391    0.2987E+001
  -1.3316    0.2938E+001
  -1.3241    0.2890E+001
  -1.3166    0.2844E+001
  -1.3091    0.2801E+001
  -1.3016    0.2760E+001
  -1.2941    0.2723E+001
  -1.2866    0.2689E+001
  -1.2791    0.2658E+001
  -1.2716    0.2631E+001
  -1.2641    0.2608E+001
  -1.2566    0.2587E+001
  -1.2491    0.2569E+001
  -1.2416    0.2554E+001
  -1.2341    0.2541E+001
  -1.2266    0.2531E+001
  -1.2191    0.2522E+001
  -1.2116    0.2514E+001
  -1.2041    0.2508E+001
  -1.1965    0.2503E+001
  -1.1890    0.2499E+001
  -1.1815    0.2496E+001
  -1.1740    0.2493E+001
  -1.1665    0.2491E+001
  -1.1590    0.2488E+001
  -1.1515    0.2484E+001
  -1.1440    0.2479E+001
  -1.1365    0.2472E+001
  -1.1290    0.2463E+001
  -1.1215    0.2450E+001
  -1.1140    0.2434E+001
  -1.1065    0.2414E+001
  -1.0990    0.2389E+001
  -1.0915    0.2360E+001
  -1.0840    0.2326E+001
  -1.0765    0.2289E+001
  -1.0690    0.2248E+001
  -1.0615    0.2204E+001
  -1.0540    0.2158E+001
  -1.0465    0.2111E+001
  -1.0390    0.2065E+001
  -1.0315    0.2021E+001
  -1.0240    0.1980E+001
  -1.0165    0.1942E+001
  -1.0090    0.1910E+001
  -1.0015    0.1883E+001
  -0.9940    0.1863E+001
  -0.9865    0.1849E+001
  -0.9790    0.1841E+001
  -0.9715    0.1840E+001
  -0.9640    0.1845E+001
  -0.9565    0.1856E+001
  -0.9490    0.1872E+001
  -0.9415    0.1893E+001
  -0.9340    0.1917E+001
  -0.9265    0.1945E+001
  -0.9190    0.1974E+001
  -0.9115    0.2006E+001
  -0.9040    0.2040E+001
  -0.8965    0.2074E+001
  -0.8890    0.2109E+001
  -0.8815    0.2143E+001
  -0.8740    0.2178E+001
  -0.8665    0.2211E+001
  -0.8590    0.2242E+001
  -0.8515    0.2271E+001
  -0.8440    0.2298E+001
  -0.8365    0.2320E+001
  -0.8290    0.2337E+001
  -0.8215    0.2349E+001
  -0.8140    0.2355E+001
  -0.8065    0.2353E+001
  -0.7989    0.2344E+001
  -0.7914    0.2327E+001
  -0.7839    0.2302E+001
  -0.7764    0.2268E+001
  -0.7689    0.2226E+001
  -0.7614    0.2177E+001
  -0.7539    0.2120E+001
  -0.7464    0.2058E+001
  -0.7389    0.1991E+001
  -0.7314    0.1920E+001
  -0.7239    0.1847E+001
  -0.7164    0.1772E+001
  -0.7089    0.1697E+001
  -0.7014    0.1623E+001
  -0.6939    0.1552E+001
  -0.6864    0.1483E+001
  -0.6789    0.1418E+001
  -0.6714    0.1357E+001
  -0.6639    0.1302E+001
  -0.6564    0.1251E+001
  -0.6489    0.1206E+001
  -0.6414    0.1167E+001
  -0.6339    0.1132E+001
  -0.6264    0.1104E+001
  -0.6189    0.1080E+001
  -0.6114    0.1061E+001
  -0.6039    0.1045E+001
  -0.5964    0.1034E+001
  -0.5889    0.1025E+001
  -0.5814    0.1018E+001
  -0.5739    0.1013E+001
  -0.5664    0.1008E+001
  -0.5589    0.1004E+001
  -0.5514    0.9988E+000
  -0.5439    0.9927E+000
  -0.5364    0.9851E+000
  -0.5289    0.9756E+000
  -0.5214    0.9639E+000
  -0.5139    0.9499E+000
  -0.5064    0.9336E+000
  -0.4989    0.9149E+000
  -0.4914    0.8942E+000
  -0.4839    0.8715E+000
  -0.4764    0.8473E+000
  -0.4689    0.8217E+000
  -0.4614    0.7951E+000
  -0.4539    0.7679E+000
  -0.4464    0.7404E+000
  -0.4389    0.7130E+000
  -0.4314    0.6858E+000
  -0.4239    0.6593E+000
  -0.4164    0.6337E+000
  -0.4089    0.6093E+000
  -0.4014    0.5863E+000
  -0.3938    0.5650E+000
  -0.3863    0.5456E+000
  -0.3788    0.5282E+000
  -0.3713    0.5132E+000
  -0.3638    0.5005E+000
  -0.3563    0.4905E+000
  -0.3488    0.4830E+000
  -0.3413    0.4782E+000
  -0.3338    0.4759E+000
  -0.3263    0.4761E+000
  -0.3188    0.4786E+000
  -0.3113    0.4831E+000
  -0.3038    0.4894E+000
  -0.2963    0.4971E+000
  -0.2888    0.5059E+000
  -0.2813    0.5152E+000
  -0.2738    0.5248E+000
  -0.2663    0.5342E+000
  -0.2588    0.5429E+000
  -0.2513    0.5506E+000
  -0.2438    0.5570E+000
  -0.2363    0.5616E+000
  -0.2288    0.5644E+000
  -0.2213    0.5651E+000
  -0.2138    0.5636E+000
  -0.2063    0.5599E+000
  -0.1988    0.5539E+000
  -0.1913    0.5458E+000
  -0.1838    0.5357E+000
  -0.1763    0.5238E+000
  -0.1688    0.5103E+000
  -0.1613    0.4955E+000
  -0.1538    0.4797E+000
  -0.1463    0.4633E+000
  -0.1388    0.4464E+000
  -0.1313    0.4295E+000
  -0.1238    0.4127E+000
  -0.1163    0.3964E+000
  -0.1088    0.3806E+000
  -0.1013    0.3656E+000
  -0.0938    0.3514E+000
  -0.0863    0.3380E+000
  -0.0788    0.3256E+000
  -0.0713    0.3139E+000
  -0.0638    0.3030E+000
  -0.0563    0.2925E+000
  -0.0488    0.2825E+000
  -0.0413    0.2727E+000
  -0.0338    0.2630E+000
  -0.0263    0.2531E+000
  -0.0188    0.2430E+000
  -0.0113    0.2325E+000
  -0.0038    0.2215E+000
   0.0038    0.2100E+000
   0.0113    0.1981E+000
   0.0188    0.1856E+000
   0.0263    0.1728E+000
   0.0338    0.1597E+000
   0.0413    0.1465E+000
   0.0488    0.1333E+000
   0.0563    0.1202E+000
   0.0638    0.1075E+000
   0.0713    0.9527E-001
   0.0788    0.8365E-001
   0.0863    0.7275E-001
   0.0938    0.6266E-001
   0.1013    0.5344E-001
   0.1088    0.4512E-001
   0.1163    0.3771E-001
   0.1238    0.3120E-001
   0.1313    0.2554E-001
   0.1388    0.2070E-001
   0.1463    0.1659E-001
   0.1538    0.1316E-001
   0.1613    0.1033E-001
   0.1688    0.8023E-002
   0.1763    0.6163E-002
   0.1838    0.4684E-002
   0.1913    0.3521E-002
   0.1988    0.2618E-002
   0.2063    0.1926E-002
   0.2138    0.1401E-002
   0.2213    0.1008E-002
   0.2288    0.7179E-003
   0.2363    0.5060E-003
   0.2438    0.3533E-003
   0.2513    0.2451E-003
   0.2588    0.1698E-003
   0.2663    0.1191E-003
   0.2738    0.8671E-004
   0.2813    0.6863E-004
   0.2888    0.6243E-004
   0.2963    0.6718E-004
   0.3038    0.8334E-004
   0.3113    0.1128E-003
   0.3188    0.1590E-003
   0.3263    0.2270E-003
   0.3338    0.3239E-003
   0.3413    0.4594E-003
   0.3488    0.6458E-003
   0.3563    0.8987E-003
   0.3638    0.1238E-002
   0.3713    0.1687E-002
   0.3788    0.2275E-002
   0.3863    0.3035E-002
   0.3938    0.4008E-002
   0.4014    0.5238E-002
   0.4089    0.6777E-002
   0.4164    0.8679E-002
   0.4239    0.1101E-001
   0.4314    0.1382E-001
   0.4389    0.1720E-001
   0.4464    0.2120E-001
   0.4539    0.2590E-001
   0.4614    0.3137E-001
   0.4689    0.3767E-001
   0.4764    0.4487E-001
   0.4839    0.5304E-001
   0.4914    0.6224E-001
   0.4989    0.7253E-001
   0.5064    0.8396E-001
   0.5139    0.9660E-001
   0.5214    0.1105E+000
   0.5289    0.1258E+000
   0.5364    0.1424E+000
   0.5439    0.1605E+000
   0.5514    0.1801E+000
   0.5589    0.2013E+000
   0.5664    0.2241E+000
   0.5739    0.2487E+000
   0.5814    0.2749E+000
   0.5889    0.3028E+000
   0.5964    0.3323E+000
   0.6039    0.3635E+000
   0.6114    0.3960E+000
   0.6189    0.4298E+000
   0.6264    0.4647E+000
   0.6339    0.5002E+000
   0.6414    0.5362E+000
   0.6489    0.5720E+000
   0.6564    0.6074E+000
   0.6639    0.6418E+000
   0.6714    0.6748E+000
   0.6789    0.7057E+000
   0.6864    0.7342E+000
   0.6939    0.7597E+000
   0.7014    0.7818E+000
   0.7089    0.8001E+000
   0.7164    0.8145E+000
   0.7239    0.8246E+000
   0.7314    0.8305E+000
   0.7389    0.8322E+000
   0.7464    0.8299E+000
   0.7539    0.8238E+000
   0.7614    0.8144E+000
   0.7689    0.8021E+000
   0.7764    0.7875E+000
   0.7839    0.7714E+000
   0.7914    0.7544E+000
   0.7989    0.7373E+000
   0.8065    0.7208E+000
   0.8140    0.7056E+000
   0.8215    0.6926E+000
   0.8290    0.6822E+000
   0.8365    0.6753E+000
   0.8440    0.6722E+000
   0.8515    0.6734E+000
   0.8590    0.6792E+000
   0.8665    0.6898E+000
   0.8740    0.7053E+000
   0.8815    0.7257E+000
   0.8890    0.7508E+000
   0.8965    0.7804E+000
   0.9040    0.8140E+000
   0.9115    0.8512E+000
   0.9190    0.8913E+000
   0.9265    0.9337E+000
   0.9340    0.9775E+000
   0.9415    0.1022E+001
   0.9490    0.1066E+001
   0.9565    0.1110E+001
   0.9640    0.1151E+001
   0.9715    0.1190E+001
   0.9790    0.1226E+001
   0.9865    0.1258E+001
   0.9940    0.1286E+001
   1.0015    0.1309E+001
   1.0090    0.1329E+001
   1.0165    0.1344E+001
   1.0240    0.1355E+001
   1.0315    0.1362E+001
   1.0390    0.1367E+001
   1.0465    0.1370E+001
   1.0540    0.1371E+001
   1.0615    0.1372E+001
   1.0690    0.1372E+001
   1.0765    0.1373E+001
   1.0840    0.1374E+001
   1.0915    0.1376E+001
   1.0990    0.1379E+001
   1.1065    0.1383E+001
   1.1140    0.1387E+001
   1.1215    0.1390E+001
   1.1290    0.1393E+001
   1.1365    0.1395E+001
   1.1440    0.1395E+001
   1.1515    0.1393E+001
   1.1590    0.1389E+001
   1.1665    0.1383E+001
   1.1740    0.1375E+001
   1.1815    0.1366E+001
   1.1890    0.1355E+001
   1.1965    0.1345E+001
   1.2041    0.1337E+001
   1.2116    0.1330E+001
   1.2191    0.1326E+001
   1.2266    0.1327E+001
   1.2341    0.1332E+001
   1.2416    0.1343E+001
   1.2491    0.1360E+001
   1.2566    0.1383E+001
   1.2641    0.1411E+001
   1.2716    0.1444E+001
   1.2791    0.1483E+001
   1.2866    0.1525E+001
   1.2941    0.1570E+001
   1.3016    0.1618E+001
   1.3091    0.1667E+001
   1.3166    0.1716E+001
   1.3241    0.1765E+001
   1.3316    0.1814E+001
   1.3391    0.1863E+001
   1.3466    0.1910E+001
   1.3541    0.1957E+001
   1.3616    0.2003E+001
   1.3691    0.2050E+001
   1.3766    0.2096E+001
   1.3841    0.2143E+001
   1.3916    0.2190E+001
   1.3991    0.2238E+001
   1.4066    0.2285E+001
   1.4141    0.2332E+001
   1.4216    0.2378E+001
   1.4291    0.2422E+001
   1.4366    0.2462E+001
   1.4441    0.2497E+001
   1.4516    0.2526E+001
   1.4591    0.2547E+001
   1.4666    0.2559E+001
   1.4741    0.2560E+001
   1.4816    0.2551E+001
   1.4891    0.2530E+001
   1.4966    0.2498E+001
   1.5041    0.2454E+001
   1.5116    0.2400E+001
   1.5191    0.2338E+001
   1.5266    0.2267E+001
   1.5341    0.2192E+001
   1.5416    0.2112E+001
   1.5491    0.2031E+001
   1.5566    0.1951E+001
   1.5641    0.1873E+001
   1.5716    0.1800E+001
   1.5791    0.1732E+001
   1.5866    0.1670E+001
   1.5941    0.1617E+001
   1.6017    0.1571E+001
   1.6092    0.1532E+001
   1.6167    0.1501E+001
   1.6242    0.1476E+001
   1.6317    0.1456E+001
   1.6392    0.1440E+001
   1.6467    0.1427E+001
   1.6542    0.1416E+001
   1.6617    0.1404E+001
   1.6692    0.1392E+001
   1.6767    0.1377E+001
   1.6842    0.1359E+001
   1.6917    0.1337E+001
   1.6992    0.1312E+001
   1.7067    0.1282E+001
   1.7142    0.1250E+001
   1.7217    0.1214E+001
   1.7292    0.1176E+001
   1.7367    0.1136E+001
   1.7442    0.1096E+001
   1.7517    0.1058E+001
   1.7592    0.1021E+001
   1.7667    0.9880E+000
   1.7742    0.9593E+000
   1.7817    0.9361E+000
   1.7892    0.9194E+000
   1.7967    0.9099E+000
   1.8042    0.9082E+000
   1.8117    0.9148E+000
   1.8192    0.9299E+000
   1.8267    0.9534E+000
   1.8342    0.9853E+000
   1.8417    0.1025E+001
   1.8492    0.1073E+001
   1.8567    0.1127E+001
   1.8642    0.1187E+001
   1.8717    0.1253E+001
   1.8792    0.1322E+001
   1.8867    0.1395E+001
   1.8942    0.1470E+001
   1.9017    0.1546E+001
   1.9092    0.1622E+001
   1.9167    0.1696E+001
   1.9242    0.1769E+001
   1.9317    0.1839E+001
   1.9392    0.1907E+001
   1.9467    0.1971E+001
   1.9542    0.2032E+001
   1.9617    0.2089E+001
   1.9692    0.2144E+001
   1.9767    0.2197E+001
   1.9842    0.2248E+001
   1.9917    0.2299E+001
   1.9992    0.2350E+001
   2.0068    0.2401E+001
   2.0143    0.2454E+001
   2.0218    0.2509E+001
   2.0293    0.2566E+001
   2.0368    0.2624E+001
   2.0443    0.2685E+001
   2.0518    0.2748E+001
   2.0593    0.2811E+001
   2.0668    0.2875E+001
   2.0743    0.2938E+001
   2.0818    0.3001E+001
   2.0893    0.3060E+001
   2.0968    0.3117E+001
   2.1043    0.3171E+001
   2.1118    0.3220E+001
   2.1193    0.3264E+001
   2.1268    0.3303E+001
   2.1343    0.3336E+001
   2.1418    0.3364E+001
   2.1493    0.3386E+001
   2.1568    0.3402E+001
   2.1643    0.3414E+001
   2.1718    0.3420E+001
   2.1793    0.3421E+001
   2.1868    0.3418E+001
   2.1943    0.3411E+001
   2.2018    0.3401E+001
   2.2093    0.3388E+001
   2.2168    0.3374E+001
   2.2243    0.3358E+001
   2.2318    0.3343E+001
   2.2393    0.3328E+001
   2.2468    0.3316E+001
   2.2543    0.3306E+001
   2.2618    0.3301E+001
   2.2693    0.3300E+001
   2.2768    0.3306E+001
   2.2843    0.3318E+001
   2.2918    0.3338E+001
   2.2993    0.3366E+001
   2.3068    0.3403E+001
   2.3143    0.3449E+001
   2.3218    0.3503E+001
   2.3293    0.3567E+001
   2.3368    0.3639E+001
   2.3443    0.3720E+001
   2.3518    0.3809E+001
   2.3593    0.3905E+001
   2.3668    0.4007E+001
   2.3743    0.4114E+001
   2.3818    0.4225E+001
   2.3893    0.4339E+001
   2.3968    0.4453E+001
   2.4044    0.4567E+001
   2.4119    0.4677E+001
   2.4194    0.4784E+001
   2.4269    0.4883E+001
   2.4344    0.4975E+001
   2.4419    0.5056E+001
   2.4494    0.5127E+001
   2.4569    0.5184E+001
   2.4644    0.5227E+001
   2.4719    0.5256E+001
   2.4794    0.5270E+001
   2.4869    0.5268E+001
   2.4944    0.5252E+001
   2.5019    0.5221E+001
   2.5094    0.5177E+001
   2.5169    0.5121E+001
   2.5244    0.5055E+001
   2.5319    0.4980E+001
   2.5394    0.4899E+001
   2.5469    0.4812E+001
   2.5544    0.4723E+001
   2.5619    0.4633E+001
   2.5694    0.4542E+001
   2.5769    0.4454E+001
   2.5844    0.4368E+001
   2.5919    0.4285E+001
   2.5994    0.4207E+001
   2.6069    0.4133E+001
   2.6144    0.4063E+001
   2.6219    0.3998E+001
   2.6294    0.3937E+001
   2.6369    0.3880E+001
   2.6444    0.3827E+001
   2.6519    0.3777E+001
   2.6594    0.3732E+001
   2.6669    0.3690E+001
   2.6744    0.3652E+001
   2.6819    0.3619E+001
   2.6894    0.3590E+001
   2.6969    0.3565E+001
   2.7044    0.3546E+001
   2.7119    0.3532E+001
   2.7194    0.3523E+001
   2.7269    0.3520E+001
   2.7344    0.3523E+001
   2.7419    0.3530E+001
   2.7494    0.3542E+001
   2.7569    0.3557E+001
   2.7644    0.3575E+001
   2.7719    0.3594E+001
   2.7794    0.3613E+001
   2.7869    0.3632E+001
   2.7944    0.3647E+001
   2.8020    0.3659E+001
   2.8095    0.3666E+001
   2.8170    0.3667E+001
   2.8245    0.3661E+001
   2.8320    0.3648E+001
   2.8395    0.3627E+001
   2.8470    0.3599E+001
   2.8545    0.3563E+001
   2.8620    0.3522E+001
   2.8695    0.3474E+001
   2.8770    0.3423E+001
   2.8845    0.3369E+001
   2.8920    0.3313E+001
   2.8995    0.3257E+001
   2.9070    0.3202E+001
   2.9145    0.3150E+001
   2.9220    0.3101E+001
   2.9295    0.3057E+001
   2.9370    0.3019E+001
   2.9445    0.2988E+001
   2.9520    0.2963E+001
   2.9595    0.2947E+001
   2.9670    0.2939E+001
   2.9745    0.2940E+001
   2.9820    0.2950E+001
   2.9895    0.2970E+001
   2.9970    0.2999E+001
   3.0045    0.3037E+001
   3.0120    0.3084E+001
   3.0195    0.3140E+001
   3.0270    0.3203E+001
   3.0345    0.3273E+001
   3.0420    0.3347E+001
   3.0495    0.3425E+001
   3.0570    0.3505E+001
   3.0645    0.3584E+001
   3.0720    0.3659E+001
   3.0795    0.3730E+001
   3.0870    0.3792E+001
   3.0945    0.3844E+001
   3.1020    0.3885E+001
   3.1095    0.3911E+001
   3.1170    0.3923E+001
   3.1245    0.3920E+001
   3.1320    0.3900E+001
   3.1395    0.3865E+001
   3.1470    0.3815E+001
   3.1545    0.3752E+001
   3.1620    0.3677E+001
   3.1695    0.3593E+001
   3.1770    0.3502E+001
   3.1845    0.3406E+001
   3.1920    0.3309E+001
   3.1995    0.3212E+001
   3.2071    0.3118E+001
   3.2146    0.3030E+001
   3.2221    0.2949E+001
   3.2296    0.2878E+001
   3.2371    0.2816E+001
   3.2446    0.2767E+001
   3.2521    0.2729E+001
   3.2596    0.2704E+001
   3.2671    0.2692E+001
   3.2746    0.2692E+001
   3.2821    0.2704E+001
   3.2896    0.2727E+001
   3.2971    0.2760E+001
   3.3046    0.2803E+001
   3.3121    0.2853E+001
   3.3196    0.2910E+001
   3.3271    0.2973E+001
   3.3346    0.3039E+001
   3.3421    0.3107E+001
   3.3496    0.3175E+001
   3.3571    0.3242E+001
   3.3646    0.3307E+001
   3.3721    0.3367E+001
   3.3796    0.3421E+001
   3.3871    0.3469E+001
   3.3946    0.3509E+001
   3.4021    0.3541E+001
   3.4096    0.3565E+001
   3.4171    0.3580E+001
   3.4246    0.3588E+001
   3.4321    0.3589E+001
   3.4396    0.3585E+001
   3.4471    0.3576E+001
   3.4546    0.3566E+001
   3.4621    0.3556E+001
   3.4696    0.3547E+001
   3.4771    0.3543E+001
   3.4846    0.3545E+001
   3.4921    0.3556E+001
   3.4996    0.3577E+001
   3.5071    0.3609E+001
   3.5146    0.3655E+001
   3.5221    0.3714E+001
   3.5296    0.3787E+001
   3.5371    0.3873E+001
   3.5446    0.3972E+001
   3.5521    0.4082E+001
   3.5596    0.4201E+001
   3.5671    0.4328E+001
   3.5746    0.4459E+001
   3.5821    0.4591E+001
   3.5896    0.4722E+001
   3.5971    0.4847E+001
   3.6047    0.4965E+001
   3.6122    0.5071E+001
   3.6197    0.5165E+001
   3.6272    0.5244E+001
   3.6347    0.5307E+001
   3.6422    0.5353E+001
   3.6497    0.5382E+001
   3.6572    0.5395E+001
   3.6647    0.5393E+001
   3.6722    0.5378E+001
   3.6797    0.5352E+001
   3.6872    0.5318E+001
   3.6947    0.5277E+001
   3.7022    0.5233E+001
   3.7097    0.5187E+001
   3.7172    0.5142E+001
   3.7247    0.5098E+001
   3.7322    0.5059E+001
   3.7397    0.5024E+001
   3.7472    0.4993E+001
   3.7547    0.4967E+001
   3.7622    0.4945E+001
   3.7697    0.4927E+001
   3.7772    0.4912E+001
   3.7847    0.4898E+001
   3.7922    0.4885E+001
   3.7997    0.4872E+001
   3.8072    0.4858E+001
   3.8147    0.4843E+001
   3.8222    0.4826E+001
   3.8297    0.4809E+001
   3.8372    0.4790E+001
   3.8447    0.4772E+001
   3.8522    0.4753E+001
   3.8597    0.4737E+001
   3.8672    0.4722E+001
   3.8747    0.4711E+001
   3.8822    0.4704E+001
   3.8897    0.4701E+001
   3.8972    0.4704E+001
   3.9047    0.4712E+001
   3.9122    0.4725E+001
   3.9197    0.4743E+001
   3.9272    0.4765E+001
   3.9347    0.4790E+001
   3.9422    0.4817E+001
   3.9497    0.4844E+001
   3.9572    0.4870E+001
   3.9647    0.4893E+001
   3.9722    0.4911E+001
   3.9797    0.4925E+001
   3.9872    0.4931E+001
   3.9947    0.4930E+001
   4.0023    0.4921E+001
   4.0098    0.4902E+001
   4.0173    0.4876E+001
   4.0248    0.4840E+001
   4.0323    0.4796E+001
   4.0398    0.4745E+001
   4.0473    0.4688E+001
   4.0548    0.4625E+001
   4.0623    0.4558E+001
   4.0698    0.4487E+001
   4.0773    0.4415E+001
   4.0848    0.4341E+001
   4.0923    0.4268E+001
   4.0998    0.4195E+001
   4.1073    0.4123E+001
   4.1148    0.4054E+001
   4.1223    0.3987E+001
   4.1298    0.3923E+001
   4.1373    0.3862E+001
   4.1448    0.3805E+001
   4.1523    0.3752E+001
   4.1598    0.3702E+001
   4.1673    0.3656E+001
   4.1748    0.3615E+001
   4.1823    0.3578E+001
   4.1898    0.3546E+001
   4.1973    0.3519E+001
   4.2048    0.3497E+001
   4.2123    0.3480E+001
   4.2198    0.3469E+001
   4.2273    0.3463E+001
   4.2348    0.3462E+001
   4.2423    0.3465E+001
   4.2498    0.3474E+001
   4.2573    0.3486E+001
   4.2648    0.3502E+001
   4.2723    0.3521E+001
   4.2798    0.3542E+001
   4.2873    0.3564E+001
   4.2948    0.3588E+001
   4.3023    0.3612E+001
   4.3098    0.3635E+001
   4.3173    0.3657E+001
   4.3248    0.3677E+001
   4.3323    0.3695E+001
   4.3398    0.3709E+001
   4.3473    0.3720E+001
   4.3548    0.3727E+001
   4.3623    0.3729E+001
   4.3698    0.3725E+001
   4.3773    0.3715E+001
   4.3848    0.3699E+001
   4.3923    0.3676E+001
   4.3998    0.3646E+001
   4.4074    0.3609E+001
   4.4149    0.3564E+001
   4.4224    0.3511E+001
   4.4299    0.3451E+001
   4.4374    0.3384E+001
   4.4449    0.3310E+001
   4.4524    0.3231E+001
   4.4599    0.3146E+001
   4.4674    0.3057E+001
   4.4749    0.2965E+001
   4.4824    0.2871E+001
   4.4899    0.2777E+001
   4.4974    0.2684E+001
   4.5049    0.2592E+001
   4.5124    0.2505E+001
   4.5199    0.2422E+001
   4.5274    0.2347E+001
   4.5349    0.2279E+001
   4.5424    0.2221E+001
   4.5499    0.2173E+001
   4.5574    0.2136E+001
   4.5649    0.2111E+001
   4.5724    0.2098E+001
   4.5799    0.2097E+001
   4.5874    0.2108E+001
   4.5949    0.2130E+001
   4.6024    0.2163E+001
   4.6099    0.2205E+001
   4.6174    0.2255E+001
   4.6249    0.2311E+001
   4.6324    0.2371E+001
   4.6399    0.2435E+001
   4.6474    0.2499E+001
   4.6549    0.2562E+001
   4.6624    0.2624E+001
   4.6699    0.2681E+001
   4.6774    0.2732E+001
   4.6849    0.2778E+001
   4.6924    0.2816E+001
   4.6999    0.2845E+001
   4.7074    0.2867E+001
   4.7149    0.2879E+001
   4.7224    0.2883E+001
   4.7299    0.2879E+001
   4.7374    0.2867E+001
   4.7449    0.2848E+001
   4.7524    0.2822E+001
   4.7599    0.2790E+001
   4.7674    0.2754E+001
   4.7749    0.2714E+001
   4.7824    0.2671E+001
   4.7899    0.2627E+001
   4.7974    0.2583E+001
   4.8050    0.2541E+001
   4.8125    0.2502E+001
   4.8200    0.2467E+001
   4.8275    0.2439E+001
   4.8350    0.2417E+001
   4.8425    0.2405E+001
   4.8500    0.2403E+001
   4.8575    0.2411E+001
   4.8650    0.2433E+001
   4.8725    0.2466E+001
   4.8800    0.2514E+001
   4.8875    0.2574E+001
   4.8950    0.2647E+001
   4.9025    0.2733E+001
   4.9100    0.2830E+001
   4.9175    0.2938E+001
   4.9250    0.3054E+001
   4.9325    0.3179E+001
   4.9400    0.3309E+001
   4.9475    0.3444E+001
   4.9550    0.3582E+001
   4.9625    0.3721E+001
   4.9700    0.3859E+001
   4.9775    0.3996E+001
   4.9850    0.4129E+001
   4.9925    0.4257E+001
   5.0000    0.4379E+001
   5.0075    0.4494E+001
   5.0150    0.4601E+001
   5.0225    0.4698E+001
   5.0300    0.4784E+001
   5.0375    0.4859E+001
   5.0450    0.4921E+001
   5.0525    0.4969E+001
   5.0600    0.5003E+001
   5.0675    0.5021E+001
   5.0750    0.5024E+001
   5.0825    0.5010E+001
   5.0900    0.4981E+001
   5.0975    0.4935E+001
   5.1050    0.4875E+001
   5.1125    0.4801E+001
   5.1200    0.4715E+001
   5.1275    0.4617E+001
   5.1350    0.4511E+001
   5.1425    0.4398E+001
   5.1500    0.4280E+001
   5.1575    0.4161E+001
   5.1650    0.4041E+001
   5.1725    0.3923E+001
   5.1800    0.3809E+001
   5.1875    0.3701E+001
   5.1950    0.3600E+001
   5.2026    0.3508E+001
   5.2101    0.3425E+001
   5.2176    0.3352E+001
   5.2251    0.3289E+001
   5.2326    0.3238E+001
   5.2401    0.3197E+001
   5.2476    0.3168E+001
   5.2551    0.3149E+001
   5.2626    0.3141E+001
   5.2701    0.3143E+001
   5.2776    0.3156E+001
   5.2851    0.3178E+001
   5.2926    0.3208E+001
   5.3001    0.3247E+001
   5.3076    0.3293E+001
   5.3151    0.3346E+001
   5.3226    0.3403E+001
   5.3301    0.3465E+001
   5.3376    0.3529E+001
   5.3451    0.3595E+001
   5.3526    0.3659E+001
   5.3601    0.3721E+001
   5.3676    0.3779E+001
   5.3751    0.3831E+001
   5.3826    0.3875E+001
   5.3901    0.3910E+001
   5.3976    0.3934E+001
   5.4051    0.3945E+001
   5.4126    0.3944E+001
   5.4201    0.3928E+001
   5.4276    0.3899E+001
   5.4351    0.3857E+001
   5.4426    0.3801E+001
   5.4501    0.3734E+001
   5.4576    0.3657E+001
   5.4651    0.3571E+001
   5.4726    0.3479E+001
   5.4801    0.3383E+001
   5.4876    0.3285E+001
   5.4951    0.3189E+001
   5.5026    0.3095E+001
   5.5101    0.3006E+001
   5.5176    0.2924E+001
   5.5251    0.2850E+001
   5.5326    0.2785E+001
   5.5401    0.2728E+001
   5.5476    0.2681E+001
   5.5551    0.2642E+001
   5.5626    0.2611E+001
   5.5701    0.2587E+001
   5.5776    0.2568E+001
   5.5851    0.2553E+001
   5.5926    0.2541E+001
   5.6002    0.2531E+001
   5.6077    0.2521E+001
   5.6152    0.2512E+001
   5.6227    0.2502E+001
   5.6302    0.2492E+001
   5.6377    0.2482E+001
   5.6452    0.2474E+001
   5.6527    0.2466E+001
   5.6602    0.2462E+001
   5.6677    0.2462E+001
   5.6752    0.2468E+001
   5.6827    0.2480E+001
   5.6902    0.2499E+001
   5.6977    0.2528E+001
   5.7052    0.2565E+001
   5.7127    0.2612E+001
   5.7202    0.2668E+001
   5.7277    0.2734E+001
   5.7352    0.2807E+001
   5.7427    0.2888E+001
   5.7502    0.2975E+001
   5.7577    0.3067E+001
   5.7652    0.3163E+001
   5.7727    0.3261E+001
   5.7802    0.3360E+001
   5.7877    0.3459E+001
   5.7952    0.3555E+001
   5.8027    0.3648E+001
   5.8102    0.3736E+001
   5.8177    0.3818E+001
   5.8252    0.3894E+001
   5.8327    0.3960E+001
   5.8402    0.4018E+001
   5.8477    0.4064E+001
   5.8552    0.4099E+001
   5.8627    0.4121E+001
   5.8702    0.4130E+001
   5.8777    0.4125E+001
   5.8852    0.4106E+001
   5.8927    0.4072E+001
   5.9002    0.4023E+001
   5.9077    0.3961E+001
   5.9152    0.3886E+001
   5.9227    0.3798E+001
   5.9302    0.3701E+001
   5.9377    0.3594E+001
   5.9452    0.3482E+001
   5.9527    0.3364E+001
   5.9602    0.3245E+001
   5.9677    0.3126E+001
   5.9752    0.3009E+001
   5.9827    0.2897E+001
   5.9902    0.2791E+001
   5.9977    0.2693E+001
   6.0053    0.2605E+001
   6.0128    0.2527E+001
   6.0203    0.2460E+001
   6.0278    0.2403E+001
   6.0353    0.2358E+001
   6.0428    0.2323E+001
   6.0503    0.2299E+001
   6.0578    0.2283E+001
   6.0653    0.2275E+001
   6.0728    0.2275E+001
   6.0803    0.2280E+001
   6.0878    0.2291E+001
   6.0953    0.2305E+001
   6.1028    0.2321E+001
   6.1103    0.2340E+001
   6.1178    0.2360E+001
   6.1253    0.2380E+001
   6.1328    0.2400E+001
   6.1403    0.2420E+001
   6.1478    0.2440E+001
   6.1553    0.2458E+001
   6.1628    0.2476E+001
   6.1703    0.2493E+001
   6.1778    0.2508E+001
   6.1853    0.2522E+001
   6.1928    0.2534E+001
   6.2003    0.2544E+001
   6.2078    0.2553E+001
   6.2153    0.2558E+001
   6.2228    0.2561E+001
   6.2303    0.2561E+001
   6.2378    0.2558E+001
   6.2453    0.2550E+001
   6.2528    0.2539E+001
   6.2603    0.2525E+001
   6.2678    0.2507E+001
   6.2753    0.2486E+001
   6.2828    0.2462E+001
   6.2903    0.2436E+001
   6.2978    0.2410E+001
   6.3053    0.2384E+001
   6.3128    0.2359E+001
   6.3203    0.2336E+001
   6.3278    0.2318E+001
   6.3353    0.2304E+001
   6.3428    0.2296E+001
   6.3503    0.2295E+001
   6.3578    0.2302E+001
   6.3653    0.2317E+001
   6.3728    0.2340E+001
   6.3803    0.2372E+001
   6.3878    0.2412E+001
   6.3953    0.2460E+001
   6.4029    0.2514E+001
   6.4104    0.2575E+001
   6.4179    0.2639E+001
   6.4254    0.2708E+001
   6.4329    0.2777E+001
   6.4404    0.2848E+001
   6.4479    0.2916E+001
   6.4554    0.2983E+001
   6.4629    0.3045E+001
   6.4704    0.3103E+001
   6.4779    0.3154E+001
   6.4854    0.3198E+001
   6.4929    0.3235E+001
   6.5004    0.3263E+001
   6.5079    0.3284E+001
   6.5154    0.3297E+001
   6.5229    0.3302E+001
   6.5304    0.3300E+001
   6.5379    0.3291E+001
   6.5454    0.3276E+001
   6.5529    0.3257E+001
   6.5604    0.3233E+001
   6.5679    0.3206E+001
   6.5754    0.3177E+001
   6.5829    0.3146E+001
   6.5904    0.3115E+001
   6.5979    0.3083E+001
   6.6054    0.3051E+001
   6.6129    0.3020E+001
   6.6204    0.2989E+001
   6.6279    0.2958E+001
   6.6354    0.2928E+001
   6.6429    0.2899E+001
   6.6504    0.2869E+001
   6.6579    0.2840E+001
   6.6654    0.2812E+001
   6.6729    0.2783E+001
   6.6804    0.2755E+001
   6.6879    0.2728E+001
   6.6954    0.2701E+001
   6.7029    0.2676E+001
   6.7104    0.2653E+001
   6.7179    0.2633E+001
   6.7254    0.2616E+001
   6.7329    0.2602E+001
   6.7404    0.2593E+001
   6.7479    0.2588E+001
   6.7554    0.2589E+001
   6.7629    0.2595E+001
   6.7704    0.2607E+001
   6.7779    0.2625E+001
   6.7854    0.2649E+001
   6.7929    0.2679E+001
   6.8005    0.2715E+001
   6.8080    0.2756E+001
   6.8155    0.2801E+001
   6.8230    0.2852E+001
   6.8305    0.2905E+001
   6.8380    0.2961E+001
   6.8455    0.3019E+001
   6.8530    0.3076E+001
   6.8605    0.3132E+001
   6.8680    0.3186E+001
   6.8755    0.3236E+001
   6.8830    0.3281E+001
   6.8905    0.3318E+001
   6.8980    0.3349E+001
   6.9055    0.3370E+001
   6.9130    0.3382E+001
   6.9205    0.3385E+001
   6.9280    0.3377E+001
   6.9355    0.3359E+001
   6.9430    0.3331E+001
   6.9505    0.3294E+001
   6.9580    0.3249E+001
   6.9655    0.3196E+001
   6.9730    0.3137E+001
   6.9805    0.3072E+001
   6.9880    0.3003E+001
   6.9955    0.2930E+001
   7.0030    0.2856E+001
   7.0105    0.2780E+001
   7.0180    0.2704E+001
   7.0255    0.2628E+001
   7.0330    0.2553E+001
   7.0405    0.2481E+001
   7.0480    0.2410E+001
   7.0555    0.2343E+001
   7.0630    0.2278E+001
   7.0705    0.2218E+001
   7.0780    0.2162E+001
   7.0855    0.2110E+001
   7.0930    0.2063E+001
   7.1005    0.2021E+001
   7.1080    0.1985E+001
   7.1155    0.1954E+001
   7.1230    0.1929E+001
   7.1305    0.1910E+001
   7.1380    0.1896E+001
   7.1455    0.1888E+001
   7.1530    0.1885E+001
   7.1605    0.1888E+001
   7.1680    0.1896E+001
   7.1755    0.1909E+001
   7.1830    0.1927E+001
   7.1905    0.1949E+001
   7.1980    0.1975E+001
   7.2056    0.2006E+001
   7.2131    0.2040E+001
   7.2206    0.2078E+001
   7.2281    0.2120E+001
   7.2356    0.2165E+001
   7.2431    0.2213E+001
   7.2506    0.2264E+001
   7.2581    0.2319E+001
   7.2656    0.2375E+001
   7.2731    0.2435E+001
   7.2806    0.2497E+001
   7.2881    0.2561E+001
   7.2956    0.2627E+001
   7.3031    0.2696E+001
   7.3106    0.2766E+001
   7.3181    0.2838E+001
   7.3256    0.2911E+001
   7.3331    0.2986E+001
   7.3406    0.3062E+001
   7.3481    0.3138E+001
   7.3556    0.3215E+001
   7.3631    0.3292E+001
   7.3706    0.3368E+001
   7.3781    0.3443E+001
   7.3856    0.3516E+001
   7.3931    0.3586E+001
   7.4006    0.3652E+001
   7.4081    0.3714E+001
   7.4156    0.3771E+001
   7.4231    0.3822E+001
   7.4306    0.3866E+001
   7.4381    0.3903E+001
   7.4456    0.3933E+001
   7.4531    0.3955E+001
   7.4606    0.3969E+001
   7.4681    0.3976E+001
   7.4756    0.3977E+001
   7.4831    0.3971E+001
   7.4906    0.3961E+001
   7.4981    0.3948E+001
   7.5056    0.3932E+001
   7.5131    0.3916E+001
   7.5206    0.3899E+001
   7.5281    0.3884E+001
   7.5356    0.3872E+001
   7.5431    0.3862E+001
   7.5506    0.3857E+001
   7.5581    0.3855E+001
   7.5656    0.3856E+001
   7.5731    0.3861E+001
   7.5806    0.3869E+001
   7.5881    0.3879E+001
   7.5956    0.3890E+001
   7.6032    0.3901E+001
   7.6107    0.3912E+001
   7.6182    0.3922E+001
   7.6257    0.3930E+001
   7.6332    0.3937E+001
   7.6407    0.3941E+001
   7.6482    0.3943E+001
   7.6557    0.3942E+001
   7.6632    0.3940E+001
   7.6707    0.3936E+001
   7.6782    0.3930E+001
   7.6857    0.3922E+001
   7.6932    0.3913E+001
   7.7007    0.3903E+001
   7.7082    0.3891E+001
   7.7157    0.3878E+001
   7.7232    0.3862E+001
   7.7307    0.3843E+001
   7.7382    0.3822E+001
   7.7457    0.3798E+001
   7.7532    0.3770E+001
   7.7607    0.3739E+001
   7.7682    0.3705E+001
   7.7757    0.3668E+001
   7.7832    0.3629E+001
   7.7907    0.3588E+001
   7.7982    0.3547E+001
   7.8057    0.3507E+001
   7.8132    0.3468E+001
   7.8207    0.3432E+001
   7.8282    0.3401E+001
   7.8357    0.3374E+001
   7.8432    0.3354E+001
   7.8507    0.3340E+001
   7.8582    0.3332E+001
   7.8657    0.3331E+001
   7.8732    0.3336E+001
   7.8807    0.3347E+001
   7.8882    0.3363E+001
   7.8957    0.3382E+001
   7.9032    0.3404E+001
   7.9107    0.3428E+001
   7.9182    0.3451E+001
   7.9257    0.3475E+001
   7.9332    0.3496E+001
   7.9407    0.3516E+001
   7.9482    0.3532E+001
   7.9557    0.3545E+001
   7.9632    0.3554E+001
   7.9707    0.3559E+001
   7.9782    0.3560E+001
   7.9857    0.3556E+001
   7.9932    0.3548E+001
   8.0008    0.3534E+001
   8.0083    0.3515E+001
   8.0158    0.3490E+001
   8.0233    0.3458E+001
   8.0308    0.3420E+001
   8.0383    0.3374E+001
   8.0458    0.3321E+001
   8.0533    0.3259E+001
   8.0608    0.3189E+001
   8.0683    0.3111E+001
   8.0758    0.3025E+001
   8.0833    0.2931E+001
   8.0908    0.2830E+001
   8.0983    0.2722E+001
   8.1058    0.2610E+001
   8.1133    0.2493E+001
   8.1208    0.2374E+001
   8.1283    0.2253E+001
   8.1358    0.2132E+001
   8.1433    0.2011E+001
   8.1508    0.1893E+001
   8.1583    0.1778E+001
   8.1658    0.1667E+001
   8.1733    0.1561E+001
   8.1808    0.1460E+001
   8.1883    0.1366E+001
   8.1958    0.1278E+001
   8.2033    0.1196E+001
   8.2108    0.1122E+001
   8.2183    0.1053E+001
   8.2258    0.9916E+000
   8.2333    0.9362E+000
   8.2408    0.8870E+000
   8.2483    0.8437E+000
   8.2558    0.8063E+000
   8.2633    0.7743E+000
   8.2708    0.7478E+000
   8.2783    0.7266E+000
   8.2858    0.7105E+000
   8.2933    0.6996E+000
   8.3008    0.6937E+000
   8.3083    0.6930E+000
   8.3158    0.6975E+000
   8.3233    0.7072E+000
   8.3308    0.7223E+000
   8.3383    0.7428E+000
   8.3458    0.7687E+000
   8.3533    0.8000E+000
   8.3608    0.8367E+000
   8.3683    0.8785E+000
   8.3758    0.9251E+000
   8.3833    0.9760E+000
   8.3908    0.1031E+001
   8.3983    0.1088E+001
   8.4059    0.1148E+001
   8.4134    0.1208E+001
   8.4209    0.1267E+001
   8.4284    0.1325E+001
   8.4359    0.1380E+001
   8.4434    0.1430E+001
   8.4509    0.1474E+001
   8.4584    0.1510E+001
   8.4659    0.1539E+001
   8.4734    0.1558E+001
   8.4809    0.1568E+001
   8.4884    0.1568E+001
   8.4959    0.1558E+001
   8.5034    0.1539E+001
   8.5109    0.1512E+001
   8.5184    0.1478E+001
   8.5259    0.1438E+001
   8.5334    0.1393E+001
   8.5409    0.1346E+001
   8.5484    0.1298E+001
   8.5559    0.1251E+001
   8.5634    0.1206E+001
   8.5709    0.1165E+001
   8.5784    0.1129E+001
   8.5859    0.1099E+001
   8.5934    0.1075E+001
   8.6009    0.1058E+001
   8.6084    0.1048E+001
   8.6159    0.1043E+001
   8.6234    0.1044E+001
   8.6309    0.1050E+001
   8.6384    0.1058E+001
   8.6459    0.1068E+001
   8.6534    0.1078E+001
   8.6609    0.1087E+001
   8.6684    0.1094E+001
   8.6759    0.1097E+001
   8.6834    0.1095E+001
   8.6909    0.1088E+001
   8.6984    0.1076E+001
   8.7059    0.1058E+001
   8.7134    0.1034E+001
   8.7209    0.1006E+001
   8.7284    0.9741E+000
   8.7359    0.9389E+000
   8.7434    0.9020E+000
   8.7509    0.8646E+000
   8.7584    0.8278E+000
   8.7659    0.7928E+000
   8.7734    0.7605E+000
   8.7809    0.7319E+000
   8.7884    0.7075E+000
   8.7959    0.6876E+000
   8.8035    0.6723E+000
   8.8110    0.6614E+000
   8.8185    0.6546E+000
   8.8260    0.6513E+000
   8.8335    0.6508E+000
   8.8410    0.6523E+000
   8.8485    0.6551E+000
   8.8560    0.6583E+000
   8.8635    0.6611E+000
   8.8710    0.6630E+000
   8.8785    0.6632E+000
   8.8860    0.6614E+000
   8.8935    0.6573E+000
   8.9010    0.6507E+000
   8.9085    0.6415E+000
   8.9160    0.6298E+000
   8.9235    0.6158E+000
   8.9310    0.5997E+000
   8.9385    0.5817E+000
   8.9460    0.5623E+000
   8.9535    0.5418E+000
   8.9610    0.5205E+000
   8.9685    0.4989E+000
   8.9760    0.4774E+000
   8.9835    0.4562E+000
   8.9910    0.4358E+000
   8.9985    0.4164E+000
   9.0060    0.3983E+000
   9.0135    0.3818E+000
   9.0210    0.3669E+000
   9.0285    0.3539E+000
   9.0360    0.3428E+000
   9.0435    0.3337E+000
   9.0510    0.3265E+000
   9.0585    0.3212E+000
   9.0660    0.3176E+000
   9.0735    0.3158E+000
   9.0810    0.3154E+000
   9.0885    0.3163E+000
   9.0960    0.3183E+000
   9.1035    0.3212E+000
   9.1110    0.3249E+000
   9.1185    0.3291E+000
   9.1260    0.3337E+000
   9.1335    0.3384E+000
   9.1410    0.3432E+000
   9.1485    0.3478E+000
   9.1560    0.3522E+000
   9.1635    0.3562E+000
   9.1710    0.3598E+000
   9.1785    0.3630E+000
   9.1860    0.3657E+000
   9.1935    0.3680E+000
   9.2011    0.3701E+000
   9.2086    0.3720E+000
   9.2161    0.3741E+000
   9.2236    0.3766E+000
   9.2311    0.3797E+000
   9.2386    0.3838E+000
   9.2461    0.3890E+000
   9.2536    0.3957E+000
   9.2611    0.4040E+000
   9.2686    0.4140E+000
   9.2761    0.4259E+000
   9.2836    0.4393E+000
   9.2911    0.4543E+000
   9.2986    0.4704E+000
   9.3061    0.4873E+000
   9.3136    0.5044E+000
   9.3211    0.5214E+000
   9.3286    0.5375E+000
   9.3361    0.5522E+000
   9.3436    0.5650E+000
   9.3511    0.5753E+000
   9.3586    0.5829E+000
   9.3661    0.5873E+000
   9.3736    0.5883E+000
   9.3811    0.5858E+000
   9.3886    0.5799E+000
   9.3961    0.5706E+000
   9.4036    0.5582E+000
   9.4111    0.5429E+000
   9.4186    0.5249E+000
   9.4261    0.5048E+000
   9.4336    0.4827E+000
   9.4411    0.4591E+000
   9.4486    0.4343E+000
   9.4561    0.4086E+000
   9.4636    0.3824E+000
   9.4711    0.3559E+000
   9.4786    0.3294E+000
   9.4861    0.3032E+000
   9.4936    0.2774E+000
   9.5011    0.2522E+000
   9.5086    0.2279E+000
   9.5161    0.2045E+000
   9.5236    0.1822E+000
   9.5311    0.1612E+000
   9.5386    0.1415E+000
   9.5461    0.1233E+000
   9.5536    0.1065E+000
   9.5611    0.9121E-001
   9.5686    0.7744E-001
   9.5761    0.6516E-001
   9.5836    0.5433E-001
   9.5911    0.4487E-001
   9.5986    0.3670E-001
   9.6062    0.2973E-001
   9.6137    0.2384E-001
   9.6212    0.1892E-001
   9.6287    0.1487E-001
   9.6362    0.1156E-001
   9.6437    0.8898E-002
   9.6512    0.6776E-002
   9.6587    0.5106E-002
   9.6662    0.3808E-002
   9.6737    0.2810E-002
   9.6812    0.2054E-002
   9.6887    0.1489E-002
   9.6962    0.1074E-002
   9.7037    0.7756E-003
   9.7112    0.5687E-003
   9.7187    0.4346E-003
   9.7262    0.3608E-003
   9.7337    0.3402E-003
   9.7412    0.3712E-003
   9.7487    0.4576E-003
   9.7562    0.6089E-003
   9.7637    0.8405E-003
   9.7712    0.1175E-002
   9.7787    0.1642E-002
   9.7862    0.2281E-002
   9.7937    0.3140E-002
   9.8012    0.4279E-002
   9.8087    0.5769E-002
   9.8162    0.7692E-002
   9.8237    0.1014E-001
   9.8312    0.1322E-001
   9.8387    0.1705E-001
   9.8462    0.2173E-001
   9.8537    0.2739E-001
   9.8612    0.3415E-001
   9.8687    0.4208E-001
   9.8762    0.5129E-001
   9.8837    0.6181E-001
   9.8912    0.7365E-001
   9.8987    0.8677E-001
   9.9062    0.1011E+000
   9.9137    0.1165E+000
   9.9212    0.1327E+000
   9.9287    0.1494E+000
   9.9362    0.1664E+000
   9.9437    0.1833E+000
   9.9512    0.1996E+000
   9.9587    0.2149E+000
   9.9662    0.2288E+000
   9.9737    0.2409E+000
   9.9812    0.2508E+000
   9.9887    0.2582E+000
   9.9962    0.2628E+000
  10.0038    0.2645E+000
  10.0113    0.2632E+000
  10.0188    0.2590E+000
  10.0263    0.2520E+000
  10.0338    0.2425E+000
  10.0413    0.2307E+000
  10.0488    0.2170E+000
  10.0563    0.2019E+000
  10.0638    0.1857E+000
  10.0713    0.1689E+000
  10.0788    0.1519E+000
  10.0863    0.1350E+000
  10.0938    0.1187E+000
  10.1013    0.1032E+000
  10.1088    0.8876E-001
  10.1163    0.7546E-001
  10.1238    0.6343E-001
  10.1313    0.5272E-001
  10.1388    0.4333E-001
  10.1463    0.3521E-001
  10.1538    0.2830E-001
  10.1613    0.2248E-001
  10.1688    0.1767E-001
  10.1763    0.1372E-001
  10.1838    0.1054E-001
  10.1913    0.8009E-002
  10.1988    0.6016E-002
  10.2063    0.4468E-002
  10.2138    0.3281E-002
  10.2213    0.2383E-002
  10.2288    0.1711E-002
  10.2363    0.1215E-002
  10.2438    0.8528E-003
  10.2513    0.5920E-003
  10.2588    0.4064E-003
  10.2663    0.2758E-003
  10.2738    0.1851E-003
  10.2813    0.1228E-003
  10.2888    0.8061E-004
  10.2963    0.5231E-004
  10.3038    0.3356E-004
  10.3113    0.2129E-004
  10.3188    0.1336E-004
  10.3263    0.8285E-005
  10.3338    0.5082E-005
  10.3413    0.3082E-005
  10.3488    0.1848E-005
  10.3563    0.1096E-005
  10.3638    0.6427E-006
  10.3713    0.3726E-006
  10.3788    0.2136E-006
  10.3863    0.1211E-006
  10.3938    0.6788E-007
  10.4014    0.3762E-007
  10.4089    0.2062E-007
  10.4164    0.1117E-007
  10.4239    0.5988E-008
  10.4314    0.3173E-008
  10.4389    0.1662E-008
  10.4464    0.8613E-009
  10.4539    0.4412E-009
  10.4614    0.2235E-009
  10.4689    0.1119E-009
  10.4764    0.5544E-010
  10.4839    0.2715E-010
  10.4914    0.1315E-010
  10.4989    0.6295E-011
  10.5064    0.2980E-011
  10.5139    0.1395E-011
  10.5214    0.6459E-012
  10.5289    0.2957E-012
  10.5364    0.1338E-012
  10.5439    0.5989E-013
  10.5514    0.2650E-013
  10.5589    0.1160E-013
  10.5664    0.5018E-014
  10.5739    0.2147E-014
  10.5814    0.9084E-015
  10.5889    0.3800E-015
  10.5964    0.1572E-015
  10.6039    0.6429E-016
  10.6114    0.2600E-016
  10.6189    0.1040E-016
  10.6264    0.4112E-017
  10.6339    0.1608E-017
  10.6414    0.6216E-018
  10.6489    0.2376E-018
  10.6564    0.8983E-019
  10.6639    0.3358E-019
  10.6714    0.1241E-019
  10.6789    0.4536E-020
  10.6864    0.1639E-020
  10.6939    0.5857E-021
  10.7014    0.2070E-021
  10.7089    0.7231E-022
  10.7164    0.2498E-022
  10.7239    0.8533E-023
  10.7314    0.2882E-023
  10.7389    0.9627E-024
  10.7464    0.3180E-024
  10.7539    0.1038E-024
  10.7614    0.3353E-025
  10.7689    0.1071E-025
  10.7764    0.3380E-026
  10.7839    0.1055E-026
  10.7914    0.3257E-027
  10.7989    0.9943E-028
  10.8065    0.3001E-028
  10.8140    0.8956E-029
  10.8215    0.2643E-029
  10.8290    0.7713E-030
  10.8365    0.2225E-030
  10.8440    0.6349E-031
  10.8515    0.1791E-031
  10.8590    0.4997E-032
  10.8665    0.1378E-032
  10.8740    0.3759E-033
  10.8815    0.1014E-033
  10.8890    0.2704E-034
  10.8965    0.7129E-035
  10.9040    0.1859E-035
  10.9115    0.4793E-036
  10.9190    0.1222E-036
  10.9265    0.3080E-037
  10.9340    0.7677E-038
  10.9415    0.1892E-038
  10.9490    0.4611E-039
  10.9565    0.1111E-039
  10.9640    0.2648E-040
  10.9715    0.6239E-041
  10.9790    0.1454E-041
  10.9865    0.3349E-042
  10.9940    0.7629E-043
  11.0015    0.1718E-043
  11.0090    0.3827E-044
  11.0165    0.8429E-045
  11.0240    0.1836E-045
  11.0315    0.3952E-046
  11.0390    0.8416E-047
  11.0465    0.1772E-047
  11.0540    0.3689E-048
  11.0615    0.7593E-049
  11.0690    0.1546E-049
  11.0765    0.3111E-050
  11.0840    0.6191E-051
  11.0915    0.1218E-051
  11.0990    0.2371E-052
  11.1065    0.4561E-053
  11.1140    0.8678E-054
  11.1215    0.1633E-054
  11.1290    0.3037E-055
  11.1365    0.5586E-056
  11.1440    0.1016E-056
  11.1515    0.1827E-057
  11.1590    0.3249E-058
  11.1665    0.5713E-059
  11.1740    0.9934E-060
  11.1815    0.1708E-060
  11.1890    0.2904E-061
  11.1965    0.4881E-062
  11.2041    0.8113E-063
  11.2116    0.1333E-063
  11.2191    0.2167E-064
  11.2266    0.3482E-065
  11.2341    0.5533E-066
  11.2416    0.8694E-067
  11.2491    0.1351E-067
  11.2566    0.2075E-068
  11.2641    0.3152E-069
  11.2716    0.4735E-070
  11.2791    0.7032E-071
  11.2866    0.1033E-071
  11.2941    0.1500E-072
  11.3016    0.2153E-073
  11.3091    0.3058E-074
  11.3166    0.4293E-075
  11.3241    0.5959E-076
  11.3316    0.8181E-077
  11.3391    0.1110E-077
  11.3466    0.1490E-078
  11.3541    0.1978E-079
  11.3616    0.2595E-080
  11.3691    0.3368E-081
  11.3766    0.4321E-082
  11.3841    0.5482E-083
  11.3916    0.6877E-084
  11.3991    0.8531E-085
  11.4066    0.1046E-085
  11.4141    0.1269E-086
  11.4216    0.1522E-087
  11.4291    0.1805E-088
  11.4366    0.2116E-089
  11.4441    0.2454E-090
  11.4516    0.2813E-091
  11.4591    0.3189E-092
  11.4666    0.3575E-093
  11.4741    0.3963E-094
  11.4816    0.4343E-095
  11.4891    0.4707E-096
  11.4966    0.5044E-097
  11.5041    0.5344E-098
  11.5116    0.5600E-099
  11.5191    0.5801E-100
  11.5266    0.5943E-101
  11.5341    0.6020E-102
  11.5416    0.6030E-103
  11.5491    0.5972E-104
  11.5566    0.5849E-105
  11.5641    0.5664E-106
  11.5716    0.5423E-107
  11.5791    0.5135E-108
  11.5866    0.4807E-109
  11.5941    0.4450E-110
  11.6017    0.4074E-111
  11.6092    0.3687E-112
  11.6167    0.3300E-113
  11.6242    0.2921E-114
  11.6317    0.2556E-115
  11.6392    0.2211E-116
  11.6467    0.1892E-117
  11.6542    0.1601E-118
  11.6617    0.1339E-119
  11.6692    0.1108E-120
  11.6767    0.9060E-122
  11.6842    0.7328E-123
  11.6917    0.5860E-124
  11.6992    0.4634E-125
  11.7067    0.3624E-126
  11.7142    0.2802E-127
  11.7217    0.2142E-128
  11.7292    0.1619E-129
  11.7367    0.1210E-130
  11.7442    0.8946E-132
  11.7517    0.6538E-133
  11.7592    0.4725E-134
  11.7667    0.3377E-135
  11.7742    0.2386E-136
  11.7817    0.1667E-137
  11.7892    0.1152E-138
  11.7967    0.7867E-140
  11.8042    0.5314E-141
  11.8117    0.3550E-142
  11.8192    0.2344E-143
  11.8267    0.1531E-144
  11.8342    0.9887E-146
  11.8417    0.6313E-147
  11.8492    0.3986E-148
  11.8567    0.2488E-149
  11.8642    0.1536E-150
  11.8717    0.9377E-152
  11.8792    0.5660E-153
  11.8867    0.3378E-154
  11.8942    0.1993E-155
  11.9017    0.1163E-156
  11.9092    0.6712E-158
  11.9167    0.3829E-159
  11.9242    0.2160E-160
  11.9317    0.1205E-161
  11.9392    0.6648E-163
  11.9467    0.3626E-164
  11.9542    0.1956E-165
  11.9617    0.1043E-166
  11.9692    0.5500E-168
  11.9767    0.2868E-169
  11.9842    0.1478E-170
  11.9917    0.7537E-172
  11.9992    0.3800E-173
  12.0068    0.1894E-174
  12.0143    0.9335E-176
  12.0218    0.4550E-177
  12.0293    0.2193E-178
  12.0368    0.1045E-179
  12.0443    0.4923E-181
  12.0518    0.2294E-182
  12.0593    0.1057E-183
  12.0668    0.4814E-185
  12.0743    0.2168E-186
  12.0818    0.9658E-188
  12.0893    0.4254E-189
  12.0968    0.1852E-190
  12.1043    0.7977E-192
  12.1118    0.3396E-193
  12.1193    0.1430E-194
  12.1268    0.5953E-196
  12.1343    0.2451E-197
  12.1418    0.9976E-199
  12.1493    0.4015E-200
  12.1568    0.1598E-201
  12.1643    0.6288E-203
  12.1718    0.2447E-204
  12.1793    0.9416E-206
  12.1868    0.3582E-207
  12.1943    0.1348E-208
  12.2018    0.5013E-210
  12.2093    0.1844E-211
  12.2168    0.6707E-213
  12.2243    0.2412E-214
  12.2318    0.8579E-216
  12.2393    0.3017E-217
  12.2468    0.1049E-218
  12.2543    0.3606E-220
  12.2618    0.1226E-221
  12.2693    0.4121E-223
  12.2768    0.1370E-224
  12.2843    0.4503E-226
  12.2918    0.1463E-227
  12.2993    0.4703E-229
  12.3068    0.1494E-230
  12.3143    0.4695E-232
  12.3218    0.1459E-233
  12.3293    0.4482E-235
  12.3368    0.1361E-236
  12.3443    0.4089E-238
  12.3518    0.1215E-239
  12.3593    0.3567E-241
  12.3668    0.1036E-242
  12.3743    0.2975E-244
  12.3818    0.8446E-246
  12.3893    0.2371E-247
  12.3968    0.6583E-249
  12.4044    0.1807E-250
  12.4119    0.4905E-252
  12.4194    0.1317E-253
  12.4269    0.3494E-255
  12.4344    0.9169E-257
  12.4419    0.2379E-258
  12.4494    0.6105E-260
  12.4569    0.1549E-261
  12.4644    0.3886E-263
  12.4719    0.9639E-265
  12.4794    0.2364E-266
  12.4869    0.5735E-268
  12.4944    0.1375E-269
  12.5019    0.3262E-271
  12.5094    0.7648E-273
  12.5169    0.1773E-274
  12.5244    0.4066E-276
  12.5319    0.9217E-278
  12.5394    0.2066E-279
  12.5469    0.4580E-281
  12.5544    0.1004E-282
  12.5619    0.2175E-284
  12.5694    0.4662E-286
  12.5769    0.9878E-288
  12.5844    0.2070E-289
  12.5919    0.4288E-291
  12.5994    0.8785E-293
  12.6069    0.1780E-294
  12.6144    0.3565E-296
  12.6219    0.7060E-298
  12.6294    0.1383E-299
  12.6369    0.2678E-301
  12.6444    0.5127E-303
  12.6519    0.9708E-305
  12.6594    0.1818E-306
  12.6669    0.0000E+000
  12.6744    0.0000E+000
  12.6819    0.0000E+000
  12.6894    0.0000E+000
  12.6969    0.0000E+000
  12.7044    0.0000E+000
  12.7119    0.0000E+000
  12.7194    0.0000E+000
  12.7269    0.0000E+000
  12.7344    0.0000E+000
  12.7419    0.0000E+000
  12.7494    0.0000E+000
  12.7569    0.0000E+000
  12.7644    0.0000E+000
  12.7719    0.0000E+000
  12.7794    0.0000E+000
  12.7869    0.0000E+000
  12.7944    0.0000E+000
  12.8020    0.0000E+000
  12.8095    0.0000E+000
  12.8170    0.0000E+000
  12.8245    0.0000E+000
  12.8320    0.0000E+000
  12.8395    0.0000E+000
  12.8470    0.0000E+000
  12.8545    0.0000E+000
  12.8620    0.0000E+000
  12.8695    0.0000E+000
  12.8770    0.0000E+000
  12.8845    0.0000E+000
  12.8920    0.0000E+000
  12.8995    0.0000E+000
  12.9070    0.0000E+000
  12.9145    0.0000E+000
  12.9220    0.0000E+000
  12.9295    0.0000E+000
  12.9370    0.0000E+000
  12.9445    0.0000E+000
  12.9520    0.0000E+000
  12.9595    0.0000E+000
  12.9670    0.0000E+000
  12.9745    0.0000E+000
  12.9820    0.0000E+000
  12.9895    0.0000E+000
  12.9970    0.0000E+000
  13.0045    0.0000E+000
  13.0120    0.0000E+000
  13.0195    0.0000E+000
  13.0270    0.0000E+000
  13.0345    0.0000E+000
  13.0420    0.0000E+000
  13.0495    0.0000E+000
  13.0570    0.0000E+000
  13.0645    0.0000E+000
  13.0720    0.0000E+000
  13.0795    0.0000E+000
  13.0870    0.0000E+000
  13.0945    0.0000E+000
  13.1020    0.0000E+000
  13.1095    0.0000E+000
  13.1170    0.0000E+000
  13.1245    0.0000E+000
  13.1320    0.0000E+000
  13.1395    0.0000E+000
  13.1470    0.0000E+000
  13.1545    0.0000E+000
  13.1620    0.0000E+000
  13.1695    0.0000E+000
  13.1770    0.0000E+000
  13.1845    0.0000E+000
  13.1920    0.0000E+000
  13.1995    0.0000E+000
  13.2071    0.0000E+000
  13.2146    0.0000E+000
  13.2221    0.0000E+000
  13.2296    0.0000E+000
  13.2371    0.0000E+000
  13.2446    0.0000E+000
  13.2521    0.0000E+000
  13.2596    0.0000E+000
  13.2671    0.0000E+000
  13.2746    0.0000E+000
  13.2821    0.0000E+000
  13.2896    0.0000E+000
  13.2971    0.0000E+000
  13.3046    0.0000E+000
  13.3121    0.0000E+000
  13.3196    0.0000E+000
  13.3271    0.0000E+000
  13.3346    0.0000E+000
  13.3421    0.0000E+000
  13.3496    0.0000E+000
  13.3571    0.0000E+000
  13.3646    0.0000E+000
  13.3721    0.0000E+000
  13.3796    0.0000E+000
  13.3871    0.0000E+000
  13.3946    0.0000E+000
  13.4021    0.0000E+000
  13.4096    0.0000E+000
  13.4171    0.0000E+000
  13.4246    0.0000E+000
  13.4321    0.0000E+000
  13.4396    0.0000E+000
  13.4471    0.0000E+000
  13.4546    0.0000E+000
  13.4621    0.0000E+000
  13.4696    0.0000E+000
  13.4771    0.0000E+000
  13.4846    0.0000E+000
  13.4921    0.0000E+000
  13.4996    0.0000E+000
  13.5071    0.0000E+000
  13.5146    0.0000E+000
  13.5221    0.0000E+000
  13.5296    0.0000E+000
  13.5371    0.0000E+000
  13.5446    0.0000E+000
  13.5521    0.0000E+000
  13.5596    0.0000E+000
  13.5671    0.0000E+000
  13.5746    0.0000E+000
  13.5821    0.0000E+000
  13.5896    0.0000E+000
  13.5971    0.0000E+000
  13.6047    0.0000E+000
  13.6122    0.0000E+000
  13.6197    0.0000E+000
  13.6272    0.0000E+000
  13.6347    0.0000E+000
  13.6422    0.0000E+000
  13.6497    0.0000E+000
  13.6572    0.0000E+000
  13.6647    0.0000E+000
  13.6722    0.0000E+000
  13.6797    0.0000E+000
  13.6872    0.0000E+000
  13.6947    0.0000E+000
  13.7022    0.0000E+000
  13.7097    0.0000E+000
  13.7172    0.0000E+000
  13.7247    0.0000E+000
  13.7322    0.0000E+000
  13.7397    0.0000E+000
  13.7472    0.0000E+000
  13.7547    0.0000E+000
  13.7622    0.0000E+000
  13.7697    0.0000E+000
  13.7772    0.0000E+000
  13.7847    0.0000E+000
  13.7922    0.0000E+000
  13.7997    0.0000E+000
  13.8072    0.0000E+000
  13.8147    0.0000E+000
  13.8222    0.0000E+000
  13.8297    0.0000E+000
  13.8372    0.0000E+000
  13.8447    0.0000E+000
  13.8522    0.0000E+000
  13.8597    0.0000E+000
  13.8672    0.0000E+000
  13.8747    0.0000E+000
  13.8822    0.0000E+000
  13.8897    0.0000E+000
  13.8972    0.0000E+000
  13.9047    0.0000E+000
  13.9122    0.0000E+000
  13.9197    0.0000E+000
  13.9272    0.0000E+000
  13.9347    0.0000E+000
  13.9422    0.0000E+000
  13.9497    0.0000E+000
  13.9572    0.0000E+000
  13.9647    0.0000E+000
  13.9722    0.0000E+000
  13.9797    0.0000E+000
  13.9872    0.0000E+000
  13.9947    0.0000E+000
  14.0023    0.0000E+000
  14.0098    0.0000E+000
  14.0173    0.0000E+000
  14.0248    0.0000E+000
  14.0323    0.0000E+000
  14.0398    0.0000E+000
  14.0473    0.0000E+000
  14.0548    0.0000E+000
  14.0623    0.0000E+000
  14.0698    0.0000E+000
  14.0773    0.0000E+000
  14.0848    0.0000E+000
  14.0923    0.0000E+000
  14.0998    0.0000E+000
  14.1073    0.0000E+000
  14.1148    0.0000E+000
  14.1223    0.0000E+000
  14.1298    0.0000E+000
  14.1373    0.0000E+000
  14.1448    0.0000E+000
  14.1523    0.0000E+000
  14.1598    0.0000E+000
  14.1673    0.0000E+000
  14.1748    0.0000E+000
  14.1823    0.0000E+000
  14.1898    0.0000E+000
  14.1973    0.0000E+000
  14.2048    0.0000E+000
  14.2123    0.0000E+000
  14.2198    0.0000E+000
  14.2273    0.0000E+000
  14.2348    0.0000E+000
  14.2423    0.0000E+000
  14.2498    0.0000E+000
  14.2573    0.0000E+000
  14.2648    0.0000E+000
  14.2723    0.0000E+000
  14.2798    0.0000E+000
  14.2873    0.0000E+000
  14.2948    0.0000E+000
  14.3023    0.0000E+000
  14.3098    0.0000E+000
  14.3173    0.0000E+000
  14.3248    0.0000E+000
  14.3323    0.0000E+000
  14.3398    0.0000E+000
  14.3473    0.0000E+000
  14.3548    0.0000E+000
  14.3623    0.0000E+000
  14.3698    0.0000E+000
  14.3773    0.0000E+000
  14.3848    0.0000E+000
  14.3923    0.0000E+000
  14.3998    0.0000E+000
  14.4074    0.0000E+000
  14.4149    0.0000E+000
  14.4224    0.0000E+000
  14.4299    0.0000E+000
  14.4374    0.0000E+000
  14.4449    0.0000E+000
  14.4524    0.0000E+000
  14.4599    0.0000E+000
  14.4674    0.0000E+000
  14.4749    0.0000E+000
  14.4824    0.0000E+000
  14.4899    0.0000E+000
  14.4974    0.0000E+000
  14.5049    0.0000E+000
  14.5124    0.0000E+000
  14.5199    0.0000E+000
  14.5274    0.0000E+000
  14.5349    0.0000E+000
  14.5424    0.0000E+000
  14.5499    0.0000E+000
  14.5574    0.0000E+000
  14.5649    0.0000E+000
  14.5724    0.0000E+000
  14.5799    0.0000E+000
  14.5874    0.0000E+000
  14.5949    0.0000E+000
  14.6024    0.0000E+000
  14.6099    0.0000E+000
  14.6174    0.0000E+000
  14.6249    0.0000E+000
  14.6324    0.0000E+000
  14.6399    0.0000E+000
  14.6474    0.0000E+000
  14.6549    0.0000E+000
  14.6624    0.0000E+000
  14.6699    0.0000E+000
  14.6774    0.0000E+000
  14.6849    0.0000E+000
  14.6924    0.0000E+000
  14.6999    0.0000E+000
  14.7074    0.0000E+000
  14.7149    0.0000E+000
  14.7224    0.0000E+000
  14.7299    0.0000E+000
  14.7374    0.0000E+000
  14.7449    0.0000E+000
  14.7524    0.0000E+000
  14.7599    0.0000E+000
  14.7674    0.0000E+000
  14.7749    0.0000E+000
  14.7824    0.0000E+000
  14.7899    0.0000E+000
  14.7974    0.0000E+000
  14.8050    0.0000E+000
  14.8125    0.0000E+000
  14.8200    0.0000E+000
  14.8275    0.0000E+000
  14.8350    0.0000E+000
  14.8425    0.0000E+000
  14.8500    0.0000E+000
  14.8575    0.0000E+000
  14.8650    0.0000E+000
  14.8725    0.0000E+000
  14.8800    0.0000E+000
  14.8875    0.0000E+000
  14.8950    0.0000E+000
  14.9025    0.0000E+000
  14.9100    0.0000E+000
  14.9175    0.0000E+000
  14.9250    0.0000E+000
  14.9325    0.0000E+000
  14.9400    0.0000E+000
  14.9475    0.0000E+000
  14.9550    0.0000E+000
  14.9625    0.0000E+000
  14.9700    0.0000E+000
  14.9775    0.0000E+000
  14.9850    0.0000E+000
  14.9925    0.0000E+000
  15.0000    0.0000E+000
