 # E (eV)   ldos(E)
 -20.0000    0.2623E+000
 -19.9925    0.2713E+000
 -19.9850    0.2801E+000
 -19.9775    0.2884E+000
 -19.9700    0.2960E+000
 -19.9625    0.3030E+000
 -19.9550    0.3091E+000
 -19.9475    0.3143E+000
 -19.9400    0.3185E+000
 -19.9325    0.3217E+000
 -19.9250    0.3238E+000
 -19.9175    0.3248E+000
 -19.9100    0.3247E+000
 -19.9025    0.3237E+000
 -19.8950    0.3216E+000
 -19.8875    0.3188E+000
 -19.8800    0.3152E+000
 -19.8725    0.3110E+000
 -19.8650    0.3064E+000
 -19.8575    0.3014E+000
 -19.8500    0.2963E+000
 -19.8425    0.2912E+000
 -19.8350    0.2861E+000
 -19.8275    0.2813E+000
 -19.8200    0.2768E+000
 -19.8125    0.2727E+000
 -19.8050    0.2691E+000
 -19.7974    0.2660E+000
 -19.7899    0.2634E+000
 -19.7824    0.2615E+000
 -19.7749    0.2601E+000
 -19.7674    0.2593E+000
 -19.7599    0.2592E+000
 -19.7524    0.2596E+000
 -19.7449    0.2605E+000
 -19.7374    0.2621E+000
 -19.7299    0.2642E+000
 -19.7224    0.2669E+000
 -19.7149    0.2701E+000
 -19.7074    0.2737E+000
 -19.6999    0.2779E+000
 -19.6924    0.2823E+000
 -19.6849    0.2871E+000
 -19.6774    0.2921E+000
 -19.6699    0.2972E+000
 -19.6624    0.3022E+000
 -19.6549    0.3071E+000
 -19.6474    0.3116E+000
 -19.6399    0.3157E+000
 -19.6324    0.3191E+000
 -19.6249    0.3219E+000
 -19.6174    0.3239E+000
 -19.6099    0.3250E+000
 -19.6024    0.3253E+000
 -19.5949    0.3248E+000
 -19.5874    0.3235E+000
 -19.5799    0.3215E+000
 -19.5724    0.3191E+000
 -19.5649    0.3164E+000
 -19.5574    0.3134E+000
 -19.5499    0.3106E+000
 -19.5424    0.3080E+000
 -19.5349    0.3058E+000
 -19.5274    0.3043E+000
 -19.5199    0.3035E+000
 -19.5124    0.3035E+000
 -19.5049    0.3045E+000
 -19.4974    0.3065E+000
 -19.4899    0.3095E+000
 -19.4824    0.3133E+000
 -19.4749    0.3179E+000
 -19.4674    0.3232E+000
 -19.4599    0.3290E+000
 -19.4524    0.3350E+000
 -19.4449    0.3411E+000
 -19.4374    0.3470E+000
 -19.4299    0.3524E+000
 -19.4224    0.3572E+000
 -19.4149    0.3610E+000
 -19.4074    0.3637E+000
 -19.3998    0.3650E+000
 -19.3923    0.3650E+000
 -19.3848    0.3633E+000
 -19.3773    0.3601E+000
 -19.3698    0.3553E+000
 -19.3623    0.3490E+000
 -19.3548    0.3412E+000
 -19.3473    0.3320E+000
 -19.3398    0.3218E+000
 -19.3323    0.3107E+000
 -19.3248    0.2989E+000
 -19.3173    0.2868E+000
 -19.3098    0.2746E+000
 -19.3023    0.2625E+000
 -19.2948    0.2509E+000
 -19.2873    0.2400E+000
 -19.2798    0.2300E+000
 -19.2723    0.2211E+000
 -19.2648    0.2134E+000
 -19.2573    0.2070E+000
 -19.2498    0.2020E+000
 -19.2423    0.1985E+000
 -19.2348    0.1963E+000
 -19.2273    0.1955E+000
 -19.2198    0.1960E+000
 -19.2123    0.1977E+000
 -19.2048    0.2004E+000
 -19.1973    0.2041E+000
 -19.1898    0.2087E+000
 -19.1823    0.2140E+000
 -19.1748    0.2199E+000
 -19.1673    0.2265E+000
 -19.1598    0.2335E+000
 -19.1523    0.2409E+000
 -19.1448    0.2487E+000
 -19.1373    0.2568E+000
 -19.1298    0.2652E+000
 -19.1223    0.2739E+000
 -19.1148    0.2827E+000
 -19.1073    0.2917E+000
 -19.0998    0.3008E+000
 -19.0923    0.3099E+000
 -19.0848    0.3189E+000
 -19.0773    0.3277E+000
 -19.0698    0.3362E+000
 -19.0623    0.3444E+000
 -19.0548    0.3520E+000
 -19.0473    0.3590E+000
 -19.0398    0.3653E+000
 -19.0323    0.3709E+000
 -19.0248    0.3756E+000
 -19.0173    0.3796E+000
 -19.0098    0.3828E+000
 -19.0023    0.3852E+000
 -18.9947    0.3868E+000
 -18.9872    0.3878E+000
 -18.9797    0.3883E+000
 -18.9722    0.3882E+000
 -18.9647    0.3878E+000
 -18.9572    0.3871E+000
 -18.9497    0.3861E+000
 -18.9422    0.3850E+000
 -18.9347    0.3838E+000
 -18.9272    0.3825E+000
 -18.9197    0.3813E+000
 -18.9122    0.3800E+000
 -18.9047    0.3787E+000
 -18.8972    0.3774E+000
 -18.8897    0.3761E+000
 -18.8822    0.3747E+000
 -18.8747    0.3732E+000
 -18.8672    0.3714E+000
 -18.8597    0.3695E+000
 -18.8522    0.3672E+000
 -18.8447    0.3645E+000
 -18.8372    0.3613E+000
 -18.8297    0.3576E+000
 -18.8222    0.3533E+000
 -18.8147    0.3483E+000
 -18.8072    0.3426E+000
 -18.7997    0.3361E+000
 -18.7922    0.3288E+000
 -18.7847    0.3207E+000
 -18.7772    0.3119E+000
 -18.7697    0.3024E+000
 -18.7622    0.2922E+000
 -18.7547    0.2816E+000
 -18.7472    0.2705E+000
 -18.7397    0.2592E+000
 -18.7322    0.2478E+000
 -18.7247    0.2364E+000
 -18.7172    0.2253E+000
 -18.7097    0.2145E+000
 -18.7022    0.2042E+000
 -18.6947    0.1946E+000
 -18.6872    0.1858E+000
 -18.6797    0.1779E+000
 -18.6722    0.1709E+000
 -18.6647    0.1651E+000
 -18.6572    0.1604E+000
 -18.6497    0.1568E+000
 -18.6422    0.1545E+000
 -18.6347    0.1534E+000
 -18.6272    0.1536E+000
 -18.6197    0.1550E+000
 -18.6122    0.1577E+000
 -18.6047    0.1615E+000
 -18.5971    0.1665E+000
 -18.5896    0.1726E+000
 -18.5821    0.1797E+000
 -18.5746    0.1878E+000
 -18.5671    0.1966E+000
 -18.5596    0.2061E+000
 -18.5521    0.2161E+000
 -18.5446    0.2264E+000
 -18.5371    0.2368E+000
 -18.5296    0.2473E+000
 -18.5221    0.2574E+000
 -18.5146    0.2672E+000
 -18.5071    0.2763E+000
 -18.4996    0.2847E+000
 -18.4921    0.2923E+000
 -18.4846    0.2988E+000
 -18.4771    0.3045E+000
 -18.4696    0.3091E+000
 -18.4621    0.3128E+000
 -18.4546    0.3157E+000
 -18.4471    0.3179E+000
 -18.4396    0.3196E+000
 -18.4321    0.3210E+000
 -18.4246    0.3224E+000
 -18.4171    0.3239E+000
 -18.4096    0.3260E+000
 -18.4021    0.3287E+000
 -18.3946    0.3323E+000
 -18.3871    0.3370E+000
 -18.3796    0.3430E+000
 -18.3721    0.3502E+000
 -18.3646    0.3587E+000
 -18.3571    0.3685E+000
 -18.3496    0.3794E+000
 -18.3421    0.3913E+000
 -18.3346    0.4039E+000
 -18.3271    0.4170E+000
 -18.3196    0.4301E+000
 -18.3121    0.4430E+000
 -18.3046    0.4553E+000
 -18.2971    0.4665E+000
 -18.2896    0.4764E+000
 -18.2821    0.4846E+000
 -18.2746    0.4909E+000
 -18.2671    0.4949E+000
 -18.2596    0.4967E+000
 -18.2521    0.4961E+000
 -18.2446    0.4931E+000
 -18.2371    0.4878E+000
 -18.2296    0.4804E+000
 -18.2221    0.4711E+000
 -18.2146    0.4603E+000
 -18.2071    0.4481E+000
 -18.1995    0.4350E+000
 -18.1920    0.4213E+000
 -18.1845    0.4073E+000
 -18.1770    0.3933E+000
 -18.1695    0.3797E+000
 -18.1620    0.3667E+000
 -18.1545    0.3544E+000
 -18.1470    0.3429E+000
 -18.1395    0.3323E+000
 -18.1320    0.3226E+000
 -18.1245    0.3138E+000
 -18.1170    0.3057E+000
 -18.1095    0.2981E+000
 -18.1020    0.2910E+000
 -18.0945    0.2842E+000
 -18.0870    0.2774E+000
 -18.0795    0.2705E+000
 -18.0720    0.2634E+000
 -18.0645    0.2560E+000
 -18.0570    0.2481E+000
 -18.0495    0.2399E+000
 -18.0420    0.2313E+000
 -18.0345    0.2223E+000
 -18.0270    0.2132E+000
 -18.0195    0.2039E+000
 -18.0120    0.1948E+000
 -18.0045    0.1859E+000
 -17.9970    0.1774E+000
 -17.9895    0.1696E+000
 -17.9820    0.1625E+000
 -17.9745    0.1562E+000
 -17.9670    0.1509E+000
 -17.9595    0.1465E+000
 -17.9520    0.1431E+000
 -17.9445    0.1407E+000
 -17.9370    0.1392E+000
 -17.9295    0.1386E+000
 -17.9220    0.1387E+000
 -17.9145    0.1394E+000
 -17.9070    0.1407E+000
 -17.8995    0.1424E+000
 -17.8920    0.1445E+000
 -17.8845    0.1469E+000
 -17.8770    0.1496E+000
 -17.8695    0.1526E+000
 -17.8620    0.1559E+000
 -17.8545    0.1596E+000
 -17.8470    0.1637E+000
 -17.8395    0.1682E+000
 -17.8320    0.1733E+000
 -17.8245    0.1791E+000
 -17.8170    0.1856E+000
 -17.8095    0.1928E+000
 -17.8020    0.2009E+000
 -17.7944    0.2098E+000
 -17.7869    0.2196E+000
 -17.7794    0.2303E+000
 -17.7719    0.2417E+000
 -17.7644    0.2539E+000
 -17.7569    0.2668E+000
 -17.7494    0.2802E+000
 -17.7419    0.2940E+000
 -17.7344    0.3081E+000
 -17.7269    0.3223E+000
 -17.7194    0.3365E+000
 -17.7119    0.3505E+000
 -17.7044    0.3642E+000
 -17.6969    0.3774E+000
 -17.6894    0.3899E+000
 -17.6819    0.4016E+000
 -17.6744    0.4124E+000
 -17.6669    0.4221E+000
 -17.6594    0.4307E+000
 -17.6519    0.4381E+000
 -17.6444    0.4443E+000
 -17.6369    0.4493E+000
 -17.6294    0.4530E+000
 -17.6219    0.4555E+000
 -17.6144    0.4568E+000
 -17.6069    0.4571E+000
 -17.5994    0.4564E+000
 -17.5919    0.4549E+000
 -17.5844    0.4526E+000
 -17.5769    0.4497E+000
 -17.5694    0.4463E+000
 -17.5619    0.4426E+000
 -17.5544    0.4385E+000
 -17.5469    0.4343E+000
 -17.5394    0.4301E+000
 -17.5319    0.4258E+000
 -17.5244    0.4217E+000
 -17.5169    0.4177E+000
 -17.5094    0.4139E+000
 -17.5019    0.4104E+000
 -17.4944    0.4071E+000
 -17.4869    0.4042E+000
 -17.4794    0.4017E+000
 -17.4719    0.3994E+000
 -17.4644    0.3975E+000
 -17.4569    0.3959E+000
 -17.4494    0.3945E+000
 -17.4419    0.3933E+000
 -17.4344    0.3923E+000
 -17.4269    0.3914E+000
 -17.4194    0.3905E+000
 -17.4119    0.3895E+000
 -17.4044    0.3884E+000
 -17.3968    0.3869E+000
 -17.3893    0.3852E+000
 -17.3818    0.3831E+000
 -17.3743    0.3805E+000
 -17.3668    0.3774E+000
 -17.3593    0.3738E+000
 -17.3518    0.3697E+000
 -17.3443    0.3651E+000
 -17.3368    0.3600E+000
 -17.3293    0.3546E+000
 -17.3218    0.3489E+000
 -17.3143    0.3430E+000
 -17.3068    0.3370E+000
 -17.2993    0.3310E+000
 -17.2918    0.3252E+000
 -17.2843    0.3196E+000
 -17.2768    0.3143E+000
 -17.2693    0.3094E+000
 -17.2618    0.3050E+000
 -17.2543    0.3010E+000
 -17.2468    0.2976E+000
 -17.2393    0.2946E+000
 -17.2318    0.2920E+000
 -17.2243    0.2898E+000
 -17.2168    0.2877E+000
 -17.2093    0.2857E+000
 -17.2018    0.2836E+000
 -17.1943    0.2812E+000
 -17.1868    0.2784E+000
 -17.1793    0.2750E+000
 -17.1718    0.2708E+000
 -17.1643    0.2658E+000
 -17.1568    0.2597E+000
 -17.1493    0.2526E+000
 -17.1418    0.2443E+000
 -17.1343    0.2350E+000
 -17.1268    0.2246E+000
 -17.1193    0.2133E+000
 -17.1118    0.2011E+000
 -17.1043    0.1883E+000
 -17.0968    0.1751E+000
 -17.0893    0.1617E+000
 -17.0818    0.1483E+000
 -17.0743    0.1351E+000
 -17.0668    0.1224E+000
 -17.0593    0.1105E+000
 -17.0518    0.9949E-001
 -17.0443    0.8963E-001
 -17.0368    0.8106E-001
 -17.0293    0.7393E-001
 -17.0218    0.6835E-001
 -17.0143    0.6441E-001
 -17.0068    0.6216E-001
 -16.9992    0.6165E-001
 -16.9917    0.6288E-001
 -16.9842    0.6585E-001
 -16.9767    0.7054E-001
 -16.9692    0.7691E-001
 -16.9617    0.8491E-001
 -16.9542    0.9446E-001
 -16.9467    0.1055E+000
 -16.9392    0.1179E+000
 -16.9317    0.1316E+000
 -16.9242    0.1465E+000
 -16.9167    0.1624E+000
 -16.9092    0.1791E+000
 -16.9017    0.1966E+000
 -16.8942    0.2146E+000
 -16.8867    0.2331E+000
 -16.8792    0.2517E+000
 -16.8717    0.2703E+000
 -16.8642    0.2887E+000
 -16.8567    0.3067E+000
 -16.8492    0.3242E+000
 -16.8417    0.3410E+000
 -16.8342    0.3570E+000
 -16.8267    0.3720E+000
 -16.8192    0.3860E+000
 -16.8117    0.3990E+000
 -16.8042    0.4109E+000
 -16.7967    0.4218E+000
 -16.7892    0.4318E+000
 -16.7817    0.4410E+000
 -16.7742    0.4495E+000
 -16.7667    0.4575E+000
 -16.7592    0.4651E+000
 -16.7517    0.4725E+000
 -16.7442    0.4799E+000
 -16.7367    0.4873E+000
 -16.7292    0.4949E+000
 -16.7217    0.5027E+000
 -16.7142    0.5108E+000
 -16.7067    0.5190E+000
 -16.6992    0.5274E+000
 -16.6917    0.5357E+000
 -16.6842    0.5438E+000
 -16.6767    0.5514E+000
 -16.6692    0.5583E+000
 -16.6617    0.5642E+000
 -16.6542    0.5689E+000
 -16.6467    0.5720E+000
 -16.6392    0.5735E+000
 -16.6317    0.5730E+000
 -16.6242    0.5705E+000
 -16.6167    0.5659E+000
 -16.6092    0.5592E+000
 -16.6017    0.5505E+000
 -16.5941    0.5399E+000
 -16.5866    0.5276E+000
 -16.5791    0.5139E+000
 -16.5716    0.4991E+000
 -16.5641    0.4836E+000
 -16.5566    0.4676E+000
 -16.5491    0.4514E+000
 -16.5416    0.4355E+000
 -16.5341    0.4199E+000
 -16.5266    0.4051E+000
 -16.5191    0.3910E+000
 -16.5116    0.3779E+000
 -16.5041    0.3657E+000
 -16.4966    0.3544E+000
 -16.4891    0.3439E+000
 -16.4816    0.3342E+000
 -16.4741    0.3251E+000
 -16.4666    0.3164E+000
 -16.4591    0.3080E+000
 -16.4516    0.2996E+000
 -16.4441    0.2913E+000
 -16.4366    0.2828E+000
 -16.4291    0.2742E+000
 -16.4216    0.2654E+000
 -16.4141    0.2565E+000
 -16.4066    0.2477E+000
 -16.3991    0.2390E+000
 -16.3916    0.2306E+000
 -16.3841    0.2228E+000
 -16.3766    0.2158E+000
 -16.3691    0.2099E+000
 -16.3616    0.2051E+000
 -16.3541    0.2017E+000
 -16.3466    0.1998E+000
 -16.3391    0.1996E+000
 -16.3316    0.2009E+000
 -16.3241    0.2038E+000
 -16.3166    0.2081E+000
 -16.3091    0.2138E+000
 -16.3016    0.2206E+000
 -16.2941    0.2282E+000
 -16.2866    0.2364E+000
 -16.2791    0.2450E+000
 -16.2716    0.2536E+000
 -16.2641    0.2620E+000
 -16.2566    0.2700E+000
 -16.2491    0.2775E+000
 -16.2416    0.2842E+000
 -16.2341    0.2901E+000
 -16.2266    0.2951E+000
 -16.2191    0.2993E+000
 -16.2116    0.3026E+000
 -16.2041    0.3051E+000
 -16.1965    0.3070E+000
 -16.1890    0.3082E+000
 -16.1815    0.3090E+000
 -16.1740    0.3092E+000
 -16.1665    0.3091E+000
 -16.1590    0.3086E+000
 -16.1515    0.3078E+000
 -16.1440    0.3066E+000
 -16.1365    0.3049E+000
 -16.1290    0.3027E+000
 -16.1215    0.2999E+000
 -16.1140    0.2964E+000
 -16.1065    0.2920E+000
 -16.0990    0.2867E+000
 -16.0915    0.2803E+000
 -16.0840    0.2728E+000
 -16.0765    0.2642E+000
 -16.0690    0.2545E+000
 -16.0615    0.2436E+000
 -16.0540    0.2317E+000
 -16.0465    0.2190E+000
 -16.0390    0.2055E+000
 -16.0315    0.1914E+000
 -16.0240    0.1770E+000
 -16.0165    0.1626E+000
 -16.0090    0.1482E+000
 -16.0015    0.1343E+000
 -15.9940    0.1210E+000
 -15.9865    0.1085E+000
 -15.9790    0.9714E-001
 -15.9715    0.8697E-001
 -15.9640    0.7819E-001
 -15.9565    0.7093E-001
 -15.9490    0.6530E-001
 -15.9415    0.6137E-001
 -15.9340    0.5920E-001
 -15.9265    0.5885E-001
 -15.9190    0.6033E-001
 -15.9115    0.6367E-001
 -15.9040    0.6886E-001
 -15.8965    0.7590E-001
 -15.8890    0.8479E-001
 -15.8815    0.9551E-001
 -15.8740    0.1080E+000
 -15.8665    0.1223E+000
 -15.8590    0.1384E+000
 -15.8515    0.1561E+000
 -15.8440    0.1754E+000
 -15.8365    0.1963E+000
 -15.8290    0.2185E+000
 -15.8215    0.2421E+000
 -15.8140    0.2667E+000
 -15.8065    0.2923E+000
 -15.7989    0.3185E+000
 -15.7914    0.3453E+000
 -15.7839    0.3722E+000
 -15.7764    0.3989E+000
 -15.7689    0.4253E+000
 -15.7614    0.4510E+000
 -15.7539    0.4758E+000
 -15.7464    0.4992E+000
 -15.7389    0.5211E+000
 -15.7314    0.5413E+000
 -15.7239    0.5596E+000
 -15.7164    0.5758E+000
 -15.7089    0.5899E+000
 -15.7014    0.6018E+000
 -15.6939    0.6116E+000
 -15.6864    0.6193E+000
 -15.6789    0.6250E+000
 -15.6714    0.6288E+000
 -15.6639    0.6310E+000
 -15.6564    0.6316E+000
 -15.6489    0.6308E+000
 -15.6414    0.6288E+000
 -15.6339    0.6257E+000
 -15.6264    0.6218E+000
 -15.6189    0.6170E+000
 -15.6114    0.6115E+000
 -15.6039    0.6055E+000
 -15.5964    0.5988E+000
 -15.5889    0.5917E+000
 -15.5814    0.5841E+000
 -15.5739    0.5761E+000
 -15.5664    0.5676E+000
 -15.5589    0.5587E+000
 -15.5514    0.5495E+000
 -15.5439    0.5400E+000
 -15.5364    0.5301E+000
 -15.5289    0.5201E+000
 -15.5214    0.5098E+000
 -15.5139    0.4993E+000
 -15.5064    0.4888E+000
 -15.4989    0.4783E+000
 -15.4914    0.4678E+000
 -15.4839    0.4574E+000
 -15.4764    0.4472E+000
 -15.4689    0.4372E+000
 -15.4614    0.4276E+000
 -15.4539    0.4183E+000
 -15.4464    0.4093E+000
 -15.4389    0.4009E+000
 -15.4314    0.3929E+000
 -15.4239    0.3854E+000
 -15.4164    0.3784E+000
 -15.4089    0.3720E+000
 -15.4014    0.3660E+000
 -15.3938    0.3605E+000
 -15.3863    0.3553E+000
 -15.3788    0.3505E+000
 -15.3713    0.3459E+000
 -15.3638    0.3414E+000
 -15.3563    0.3368E+000
 -15.3488    0.3320E+000
 -15.3413    0.3269E+000
 -15.3338    0.3212E+000
 -15.3263    0.3148E+000
 -15.3188    0.3076E+000
 -15.3113    0.2994E+000
 -15.3038    0.2903E+000
 -15.2963    0.2801E+000
 -15.2888    0.2690E+000
 -15.2813    0.2569E+000
 -15.2738    0.2439E+000
 -15.2663    0.2303E+000
 -15.2588    0.2162E+000
 -15.2513    0.2019E+000
 -15.2438    0.1877E+000
 -15.2363    0.1737E+000
 -15.2288    0.1605E+000
 -15.2213    0.1481E+000
 -15.2138    0.1370E+000
 -15.2063    0.1275E+000
 -15.1988    0.1196E+000
 -15.1913    0.1137E+000
 -15.1838    0.1099E+000
 -15.1763    0.1083E+000
 -15.1688    0.1090E+000
 -15.1613    0.1119E+000
 -15.1538    0.1171E+000
 -15.1463    0.1245E+000
 -15.1388    0.1337E+000
 -15.1313    0.1448E+000
 -15.1238    0.1574E+000
 -15.1163    0.1712E+000
 -15.1088    0.1860E+000
 -15.1013    0.2015E+000
 -15.0938    0.2173E+000
 -15.0863    0.2331E+000
 -15.0788    0.2486E+000
 -15.0713    0.2636E+000
 -15.0638    0.2779E+000
 -15.0563    0.2911E+000
 -15.0488    0.3033E+000
 -15.0413    0.3142E+000
 -15.0338    0.3238E+000
 -15.0263    0.3321E+000
 -15.0188    0.3390E+000
 -15.0113    0.3446E+000
 -15.0038    0.3489E+000
 -14.9962    0.3519E+000
 -14.9887    0.3537E+000
 -14.9812    0.3543E+000
 -14.9737    0.3538E+000
 -14.9662    0.3521E+000
 -14.9587    0.3492E+000
 -14.9512    0.3451E+000
 -14.9437    0.3399E+000
 -14.9362    0.3335E+000
 -14.9287    0.3258E+000
 -14.9212    0.3169E+000
 -14.9137    0.3069E+000
 -14.9062    0.2958E+000
 -14.8987    0.2838E+000
 -14.8912    0.2710E+000
 -14.8837    0.2576E+000
 -14.8762    0.2439E+000
 -14.8687    0.2301E+000
 -14.8612    0.2167E+000
 -14.8537    0.2040E+000
 -14.8462    0.1922E+000
 -14.8387    0.1818E+000
 -14.8312    0.1732E+000
 -14.8237    0.1665E+000
 -14.8162    0.1621E+000
 -14.8087    0.1603E+000
 -14.8012    0.1611E+000
 -14.7937    0.1647E+000
 -14.7862    0.1712E+000
 -14.7787    0.1804E+000
 -14.7712    0.1922E+000
 -14.7637    0.2066E+000
 -14.7562    0.2232E+000
 -14.7487    0.2419E+000
 -14.7412    0.2622E+000
 -14.7337    0.2838E+000
 -14.7262    0.3064E+000
 -14.7187    0.3297E+000
 -14.7112    0.3532E+000
 -14.7037    0.3768E+000
 -14.6962    0.4001E+000
 -14.6887    0.4230E+000
 -14.6812    0.4453E+000
 -14.6737    0.4669E+000
 -14.6662    0.4878E+000
 -14.6587    0.5079E+000
 -14.6512    0.5273E+000
 -14.6437    0.5460E+000
 -14.6362    0.5642E+000
 -14.6287    0.5818E+000
 -14.6212    0.5991E+000
 -14.6137    0.6159E+000
 -14.6062    0.6323E+000
 -14.5986    0.6484E+000
 -14.5911    0.6640E+000
 -14.5836    0.6791E+000
 -14.5761    0.6935E+000
 -14.5686    0.7071E+000
 -14.5611    0.7198E+000
 -14.5536    0.7312E+000
 -14.5461    0.7414E+000
 -14.5386    0.7502E+000
 -14.5311    0.7573E+000
 -14.5236    0.7626E+000
 -14.5161    0.7662E+000
 -14.5086    0.7677E+000
 -14.5011    0.7673E+000
 -14.4936    0.7648E+000
 -14.4861    0.7602E+000
 -14.4786    0.7534E+000
 -14.4711    0.7445E+000
 -14.4636    0.7333E+000
 -14.4561    0.7198E+000
 -14.4486    0.7040E+000
 -14.4411    0.6860E+000
 -14.4336    0.6656E+000
 -14.4261    0.6430E+000
 -14.4186    0.6182E+000
 -14.4111    0.5913E+000
 -14.4036    0.5625E+000
 -14.3961    0.5321E+000
 -14.3886    0.5001E+000
 -14.3811    0.4671E+000
 -14.3736    0.4332E+000
 -14.3661    0.3990E+000
 -14.3586    0.3647E+000
 -14.3511    0.3308E+000
 -14.3436    0.2976E+000
 -14.3361    0.2656E+000
 -14.3286    0.2350E+000
 -14.3211    0.2061E+000
 -14.3136    0.1792E+000
 -14.3061    0.1544E+000
 -14.2986    0.1318E+000
 -14.2911    0.1114E+000
 -14.2836    0.9331E-001
 -14.2761    0.7740E-001
 -14.2686    0.6358E-001
 -14.2611    0.5172E-001
 -14.2536    0.4165E-001
 -14.2461    0.3320E-001
 -14.2386    0.2620E-001
 -14.2311    0.2047E-001
 -14.2236    0.1583E-001
 -14.2161    0.1211E-001
 -14.2086    0.9174E-002
 -14.2011    0.6876E-002
 -14.1935    0.5100E-002
 -14.1860    0.3743E-002
 -14.1785    0.2719E-002
 -14.1710    0.1954E-002
 -14.1635    0.1389E-002
 -14.1560    0.9774E-003
 -14.1485    0.6805E-003
 -14.1410    0.4690E-003
 -14.1335    0.3202E-003
 -14.1260    0.2170E-003
 -14.1185    0.1465E-003
 -14.1110    0.9963E-004
 -14.1035    0.6975E-004
 -14.0960    0.5247E-004
 -14.0885    0.4506E-004
 -14.0810    0.4620E-004
 -14.0735    0.5583E-004
 -14.0660    0.7504E-004
 -14.0585    0.1062E-003
 -14.0510    0.1530E-003
 -14.0435    0.2209E-003
 -14.0360    0.3172E-003
 -14.0285    0.4518E-003
 -14.0210    0.6375E-003
 -14.0135    0.8907E-003
 -14.0060    0.1232E-002
 -13.9985    0.1687E-002
 -13.9910    0.2286E-002
 -13.9835    0.3069E-002
 -13.9760    0.4078E-002
 -13.9685    0.5365E-002
 -13.9610    0.6991E-002
 -13.9535    0.9021E-002
 -13.9460    0.1153E-001
 -13.9385    0.1460E-001
 -13.9310    0.1830E-001
 -13.9235    0.2274E-001
 -13.9160    0.2799E-001
 -13.9085    0.3414E-001
 -13.9010    0.4127E-001
 -13.8935    0.4944E-001
 -13.8860    0.5870E-001
 -13.8785    0.6910E-001
 -13.8710    0.8064E-001
 -13.8635    0.9330E-001
 -13.8560    0.1071E+000
 -13.8485    0.1218E+000
 -13.8410    0.1375E+000
 -13.8335    0.1539E+000
 -13.8260    0.1710E+000
 -13.8185    0.1884E+000
 -13.8110    0.2061E+000
 -13.8035    0.2237E+000
 -13.7959    0.2411E+000
 -13.7884    0.2579E+000
 -13.7809    0.2740E+000
 -13.7734    0.2891E+000
 -13.7659    0.3030E+000
 -13.7584    0.3157E+000
 -13.7509    0.3268E+000
 -13.7434    0.3365E+000
 -13.7359    0.3446E+000
 -13.7284    0.3512E+000
 -13.7209    0.3564E+000
 -13.7134    0.3603E+000
 -13.7059    0.3631E+000
 -13.6984    0.3650E+000
 -13.6909    0.3663E+000
 -13.6834    0.3672E+000
 -13.6759    0.3680E+000
 -13.6684    0.3691E+000
 -13.6609    0.3706E+000
 -13.6534    0.3728E+000
 -13.6459    0.3759E+000
 -13.6384    0.3800E+000
 -13.6309    0.3852E+000
 -13.6234    0.3915E+000
 -13.6159    0.3988E+000
 -13.6084    0.4071E+000
 -13.6009    0.4160E+000
 -13.5934    0.4255E+000
 -13.5859    0.4350E+000
 -13.5784    0.4445E+000
 -13.5709    0.4534E+000
 -13.5634    0.4616E+000
 -13.5559    0.4686E+000
 -13.5484    0.4742E+000
 -13.5409    0.4783E+000
 -13.5334    0.4805E+000
 -13.5259    0.4809E+000
 -13.5184    0.4794E+000
 -13.5109    0.4760E+000
 -13.5034    0.4710E+000
 -13.4959    0.4646E+000
 -13.4884    0.4569E+000
 -13.4809    0.4484E+000
 -13.4734    0.4393E+000
 -13.4659    0.4301E+000
 -13.4584    0.4210E+000
 -13.4509    0.4125E+000
 -13.4434    0.4047E+000
 -13.4359    0.3981E+000
 -13.4284    0.3926E+000
 -13.4209    0.3886E+000
 -13.4134    0.3859E+000
 -13.4059    0.3846E+000
 -13.3983    0.3846E+000
 -13.3908    0.3857E+000
 -13.3833    0.3878E+000
 -13.3758    0.3906E+000
 -13.3683    0.3940E+000
 -13.3608    0.3975E+000
 -13.3533    0.4010E+000
 -13.3458    0.4042E+000
 -13.3383    0.4069E+000
 -13.3308    0.4088E+000
 -13.3233    0.4098E+000
 -13.3158    0.4096E+000
 -13.3083    0.4083E+000
 -13.3008    0.4055E+000
 -13.2933    0.4013E+000
 -13.2858    0.3955E+000
 -13.2783    0.3881E+000
 -13.2708    0.3792E+000
 -13.2633    0.3686E+000
 -13.2558    0.3564E+000
 -13.2483    0.3428E+000
 -13.2408    0.3278E+000
 -13.2333    0.3115E+000
 -13.2258    0.2941E+000
 -13.2183    0.2758E+000
 -13.2108    0.2568E+000
 -13.2033    0.2374E+000
 -13.1958    0.2178E+000
 -13.1883    0.1982E+000
 -13.1808    0.1790E+000
 -13.1733    0.1604E+000
 -13.1658    0.1425E+000
 -13.1583    0.1257E+000
 -13.1508    0.1100E+000
 -13.1433    0.9575E-001
 -13.1358    0.8294E-001
 -13.1283    0.7172E-001
 -13.1208    0.6217E-001
 -13.1133    0.5437E-001
 -13.1058    0.4838E-001
 -13.0983    0.4428E-001
 -13.0908    0.4212E-001
 -13.0833    0.4199E-001
 -13.0758    0.4399E-001
 -13.0683    0.4822E-001
 -13.0608    0.5479E-001
 -13.0533    0.6384E-001
 -13.0458    0.7550E-001
 -13.0383    0.8988E-001
 -13.0308    0.1071E+000
 -13.0233    0.1272E+000
 -13.0158    0.1502E+000
 -13.0083    0.1760E+000
 -13.0008    0.2046E+000
 -12.9932    0.2357E+000
 -12.9857    0.2691E+000
 -12.9782    0.3044E+000
 -12.9707    0.3410E+000
 -12.9632    0.3785E+000
 -12.9557    0.4163E+000
 -12.9482    0.4536E+000
 -12.9407    0.4898E+000
 -12.9332    0.5242E+000
 -12.9257    0.5562E+000
 -12.9182    0.5851E+000
 -12.9107    0.6103E+000
 -12.9032    0.6316E+000
 -12.8957    0.6484E+000
 -12.8882    0.6607E+000
 -12.8807    0.6683E+000
 -12.8732    0.6714E+000
 -12.8657    0.6699E+000
 -12.8582    0.6643E+000
 -12.8507    0.6548E+000
 -12.8432    0.6420E+000
 -12.8357    0.6261E+000
 -12.8282    0.6078E+000
 -12.8207    0.5875E+000
 -12.8132    0.5657E+000
 -12.8057    0.5429E+000
 -12.7982    0.5196E+000
 -12.7907    0.4961E+000
 -12.7832    0.4728E+000
 -12.7757    0.4501E+000
 -12.7682    0.4281E+000
 -12.7607    0.4071E+000
 -12.7532    0.3874E+000
 -12.7457    0.3690E+000
 -12.7382    0.3521E+000
 -12.7307    0.3368E+000
 -12.7232    0.3232E+000
 -12.7157    0.3114E+000
 -12.7082    0.3014E+000
 -12.7007    0.2933E+000
 -12.6932    0.2872E+000
 -12.6857    0.2831E+000
 -12.6782    0.2811E+000
 -12.6707    0.2813E+000
 -12.6632    0.2836E+000
 -12.6557    0.2882E+000
 -12.6482    0.2950E+000
 -12.6407    0.3041E+000
 -12.6332    0.3155E+000
 -12.6257    0.3290E+000
 -12.6182    0.3445E+000
 -12.6107    0.3620E+000
 -12.6032    0.3813E+000
 -12.5956    0.4020E+000
 -12.5881    0.4239E+000
 -12.5806    0.4467E+000
 -12.5731    0.4699E+000
 -12.5656    0.4932E+000
 -12.5581    0.5161E+000
 -12.5506    0.5381E+000
 -12.5431    0.5588E+000
 -12.5356    0.5779E+000
 -12.5281    0.5948E+000
 -12.5206    0.6092E+000
 -12.5131    0.6209E+000
 -12.5056    0.6296E+000
 -12.4981    0.6352E+000
 -12.4906    0.6375E+000
 -12.4831    0.6365E+000
 -12.4756    0.6323E+000
 -12.4681    0.6250E+000
 -12.4606    0.6148E+000
 -12.4531    0.6018E+000
 -12.4456    0.5863E+000
 -12.4381    0.5684E+000
 -12.4306    0.5486E+000
 -12.4231    0.5269E+000
 -12.4156    0.5037E+000
 -12.4081    0.4792E+000
 -12.4006    0.4537E+000
 -12.3931    0.4274E+000
 -12.3856    0.4005E+000
 -12.3781    0.3733E+000
 -12.3706    0.3460E+000
 -12.3631    0.3189E+000
 -12.3556    0.2920E+000
 -12.3481    0.2657E+000
 -12.3406    0.2402E+000
 -12.3331    0.2156E+000
 -12.3256    0.1921E+000
 -12.3181    0.1699E+000
 -12.3106    0.1490E+000
 -12.3031    0.1297E+000
 -12.2956    0.1120E+000
 -12.2881    0.9587E-001
 -12.2806    0.8137E-001
 -12.2731    0.6847E-001
 -12.2656    0.5714E-001
 -12.2581    0.4731E-001
 -12.2506    0.3890E-001
 -12.2431    0.3182E-001
 -12.2356    0.2598E-001
 -12.2281    0.2128E-001
 -12.2206    0.1764E-001
 -12.2131    0.1499E-001
 -12.2056    0.1327E-001
 -12.1980    0.1244E-001
 -12.1905    0.1249E-001
 -12.1830    0.1344E-001
 -12.1755    0.1532E-001
 -12.1680    0.1818E-001
 -12.1605    0.2212E-001
 -12.1530    0.2723E-001
 -12.1455    0.3363E-001
 -12.1380    0.4146E-001
 -12.1305    0.5084E-001
 -12.1230    0.6192E-001
 -12.1155    0.7481E-001
 -12.1080    0.8963E-001
 -12.1005    0.1065E+000
 -12.0930    0.1254E+000
 -12.0855    0.1464E+000
 -12.0780    0.1695E+000
 -12.0705    0.1946E+000
 -12.0630    0.2217E+000
 -12.0555    0.2505E+000
 -12.0480    0.2809E+000
 -12.0405    0.3126E+000
 -12.0330    0.3453E+000
 -12.0255    0.3788E+000
 -12.0180    0.4126E+000
 -12.0105    0.4463E+000
 -12.0030    0.4797E+000
 -11.9955    0.5122E+000
 -11.9880    0.5435E+000
 -11.9805    0.5732E+000
 -11.9730    0.6008E+000
 -11.9655    0.6260E+000
 -11.9580    0.6484E+000
 -11.9505    0.6678E+000
 -11.9430    0.6839E+000
 -11.9355    0.6964E+000
 -11.9280    0.7053E+000
 -11.9205    0.7106E+000
 -11.9130    0.7121E+000
 -11.9055    0.7100E+000
 -11.8980    0.7044E+000
 -11.8905    0.6955E+000
 -11.8830    0.6836E+000
 -11.8755    0.6689E+000
 -11.8680    0.6518E+000
 -11.8605    0.6327E+000
 -11.8530    0.6117E+000
 -11.8455    0.5892E+000
 -11.8380    0.5656E+000
 -11.8305    0.5411E+000
 -11.8230    0.5158E+000
 -11.8155    0.4901E+000
 -11.8080    0.4640E+000
 -11.8005    0.4377E+000
 -11.7929    0.4114E+000
 -11.7854    0.3851E+000
 -11.7779    0.3591E+000
 -11.7704    0.3334E+000
 -11.7629    0.3081E+000
 -11.7554    0.2836E+000
 -11.7479    0.2598E+000
 -11.7404    0.2371E+000
 -11.7329    0.2157E+000
 -11.7254    0.1957E+000
 -11.7179    0.1775E+000
 -11.7104    0.1613E+000
 -11.7029    0.1472E+000
 -11.6954    0.1354E+000
 -11.6879    0.1263E+000
 -11.6804    0.1197E+000
 -11.6729    0.1160E+000
 -11.6654    0.1151E+000
 -11.6579    0.1171E+000
 -11.6504    0.1219E+000
 -11.6429    0.1294E+000
 -11.6354    0.1395E+000
 -11.6279    0.1521E+000
 -11.6204    0.1668E+000
 -11.6129    0.1835E+000
 -11.6054    0.2017E+000
 -11.5979    0.2212E+000
 -11.5904    0.2415E+000
 -11.5829    0.2624E+000
 -11.5754    0.2833E+000
 -11.5679    0.3039E+000
 -11.5604    0.3238E+000
 -11.5529    0.3427E+000
 -11.5454    0.3601E+000
 -11.5379    0.3759E+000
 -11.5304    0.3896E+000
 -11.5229    0.4011E+000
 -11.5154    0.4103E+000
 -11.5079    0.4169E+000
 -11.5004    0.4208E+000
 -11.4929    0.4220E+000
 -11.4854    0.4205E+000
 -11.4779    0.4163E+000
 -11.4704    0.4094E+000
 -11.4629    0.4001E+000
 -11.4554    0.3883E+000
 -11.4479    0.3744E+000
 -11.4404    0.3584E+000
 -11.4329    0.3408E+000
 -11.4254    0.3216E+000
 -11.4179    0.3013E+000
 -11.4104    0.2801E+000
 -11.4029    0.2585E+000
 -11.3953    0.2366E+000
 -11.3878    0.2149E+000
 -11.3803    0.1936E+000
 -11.3728    0.1731E+000
 -11.3653    0.1535E+000
 -11.3578    0.1351E+000
 -11.3503    0.1182E+000
 -11.3428    0.1028E+000
 -11.3353    0.8913E-001
 -11.3278    0.7717E-001
 -11.3203    0.6701E-001
 -11.3128    0.5867E-001
 -11.3053    0.5212E-001
 -11.2978    0.4735E-001
 -11.2903    0.4430E-001
 -11.2828    0.4292E-001
 -11.2753    0.4315E-001
 -11.2678    0.4490E-001
 -11.2603    0.4810E-001
 -11.2528    0.5266E-001
 -11.2453    0.5848E-001
 -11.2378    0.6546E-001
 -11.2303    0.7350E-001
 -11.2228    0.8247E-001
 -11.2153    0.9227E-001
 -11.2078    0.1028E+000
 -11.2003    0.1139E+000
 -11.1928    0.1254E+000
 -11.1853    0.1373E+000
 -11.1778    0.1495E+000
 -11.1703    0.1620E+000
 -11.1628    0.1746E+000
 -11.1553    0.1874E+000
 -11.1478    0.2004E+000
 -11.1403    0.2137E+000
 -11.1328    0.2274E+000
 -11.1253    0.2416E+000
 -11.1178    0.2565E+000
 -11.1103    0.2723E+000
 -11.1028    0.2891E+000
 -11.0953    0.3073E+000
 -11.0878    0.3269E+000
 -11.0803    0.3480E+000
 -11.0728    0.3710E+000
 -11.0653    0.3957E+000
 -11.0578    0.4222E+000
 -11.0503    0.4504E+000
 -11.0428    0.4802E+000
 -11.0353    0.5114E+000
 -11.0278    0.5437E+000
 -11.0203    0.5768E+000
 -11.0128    0.6101E+000
 -11.0053    0.6434E+000
 -10.9977    0.6759E+000
 -10.9902    0.7074E+000
 -10.9827    0.7371E+000
 -10.9752    0.7646E+000
 -10.9677    0.7895E+000
 -10.9602    0.8111E+000
 -10.9527    0.8293E+000
 -10.9452    0.8435E+000
 -10.9377    0.8535E+000
 -10.9302    0.8591E+000
 -10.9227    0.8602E+000
 -10.9152    0.8566E+000
 -10.9077    0.8484E+000
 -10.9002    0.8356E+000
 -10.8927    0.8184E+000
 -10.8852    0.7969E+000
 -10.8777    0.7715E+000
 -10.8702    0.7424E+000
 -10.8627    0.7100E+000
 -10.8552    0.6748E+000
 -10.8477    0.6372E+000
 -10.8402    0.5977E+000
 -10.8327    0.5568E+000
 -10.8252    0.5151E+000
 -10.8177    0.4731E+000
 -10.8102    0.4314E+000
 -10.8027    0.3903E+000
 -10.7952    0.3505E+000
 -10.7877    0.3122E+000
 -10.7802    0.2759E+000
 -10.7727    0.2418E+000
 -10.7652    0.2101E+000
 -10.7577    0.1811E+000
 -10.7502    0.1547E+000
 -10.7427    0.1310E+000
 -10.7352    0.1099E+000
 -10.7277    0.9140E-001
 -10.7202    0.7532E-001
 -10.7127    0.6150E-001
 -10.7052    0.4974E-001
 -10.6977    0.3986E-001
 -10.6902    0.3164E-001
 -10.6827    0.2487E-001
 -10.6752    0.1936E-001
 -10.6677    0.1493E-001
 -10.6602    0.1140E-001
 -10.6527    0.8614E-002
 -10.6452    0.6448E-002
 -10.6377    0.4779E-002
 -10.6302    0.3507E-002
 -10.6227    0.2549E-002
 -10.6152    0.1835E-002
 -10.6077    0.1311E-002
 -10.6002    0.9318E-003
 -10.5926    0.6627E-003
 -10.5851    0.4779E-003
 -10.5776    0.3583E-003
 -10.5701    0.2911E-003
 -10.5626    0.2691E-003
 -10.5551    0.2897E-003
 -10.5476    0.3556E-003
 -10.5401    0.4742E-003
 -10.5326    0.6587E-003
 -10.5251    0.9281E-003
 -10.5176    0.1309E-002
 -10.5101    0.1837E-002
 -10.5026    0.2556E-002
 -10.4951    0.3524E-002
 -10.4876    0.4809E-002
 -10.4801    0.6497E-002
 -10.4726    0.8687E-002
 -10.4651    0.1150E-001
 -10.4576    0.1506E-001
 -10.4501    0.1953E-001
 -10.4426    0.2507E-001
 -10.4351    0.3186E-001
 -10.4276    0.4008E-001
 -10.4201    0.4993E-001
 -10.4126    0.6158E-001
 -10.4051    0.7522E-001
 -10.3976    0.9099E-001
 -10.3901    0.1090E+000
 -10.3826    0.1294E+000
 -10.3751    0.1521E+000
 -10.3676    0.1773E+000
 -10.3601    0.2046E+000
 -10.3526    0.2342E+000
 -10.3451    0.2656E+000
 -10.3376    0.2986E+000
 -10.3301    0.3330E+000
 -10.3226    0.3683E+000
 -10.3151    0.4040E+000
 -10.3076    0.4398E+000
 -10.3001    0.4752E+000
 -10.2926    0.5097E+000
 -10.2851    0.5429E+000
 -10.2776    0.5744E+000
 -10.2701    0.6040E+000
 -10.2626    0.6313E+000
 -10.2551    0.6563E+000
 -10.2476    0.6788E+000
 -10.2401    0.6989E+000
 -10.2326    0.7167E+000
 -10.2251    0.7325E+000
 -10.2176    0.7465E+000
 -10.2101    0.7591E+000
 -10.2026    0.7708E+000
 -10.1950    0.7819E+000
 -10.1875    0.7930E+000
 -10.1800    0.8045E+000
 -10.1725    0.8167E+000
 -10.1650    0.8299E+000
 -10.1575    0.8445E+000
 -10.1500    0.8605E+000
 -10.1425    0.8777E+000
 -10.1350    0.8962E+000
 -10.1275    0.9155E+000
 -10.1200    0.9353E+000
 -10.1125    0.9548E+000
 -10.1050    0.9735E+000
 -10.0975    0.9906E+000
 -10.0900    0.1005E+001
 -10.0825    0.1017E+001
 -10.0750    0.1024E+001
 -10.0675    0.1027E+001
 -10.0600    0.1024E+001
 -10.0525    0.1016E+001
 -10.0450    0.1001E+001
 -10.0375    0.9808E+000
 -10.0300    0.9540E+000
 -10.0225    0.9213E+000
 -10.0150    0.8831E+000
 -10.0075    0.8400E+000
 -10.0000    0.7928E+000
  -9.9925    0.7421E+000
  -9.9850    0.6889E+000
  -9.9775    0.6341E+000
  -9.9700    0.5787E+000
  -9.9625    0.5235E+000
  -9.9550    0.4693E+000
  -9.9475    0.4170E+000
  -9.9400    0.3672E+000
  -9.9325    0.3203E+000
  -9.9250    0.2768E+000
  -9.9175    0.2370E+000
  -9.9100    0.2009E+000
  -9.9025    0.1687E+000
  -9.8950    0.1403E+000
  -9.8875    0.1156E+000
  -9.8800    0.9425E-001
  -9.8725    0.7609E-001
  -9.8650    0.6082E-001
  -9.8575    0.4813E-001
  -9.8500    0.3770E-001
  -9.8425    0.2923E-001
  -9.8350    0.2243E-001
  -9.8275    0.1703E-001
  -9.8200    0.1280E-001
  -9.8125    0.9525E-002
  -9.8050    0.7013E-002
  -9.7974    0.5111E-002
  -9.7899    0.3688E-002
  -9.7824    0.2636E-002
  -9.7749    0.1871E-002
  -9.7674    0.1322E-002
  -9.7599    0.9381E-003
  -9.7524    0.6789E-003
  -9.7449    0.5163E-003
  -9.7374    0.4309E-003
  -9.7299    0.4117E-003
  -9.7224    0.4549E-003
  -9.7149    0.5634E-003
  -9.7074    0.7466E-003
  -9.6999    0.1021E-002
  -9.6924    0.1411E-002
  -9.6849    0.1949E-002
  -9.6774    0.2677E-002
  -9.6699    0.3648E-002
  -9.6624    0.4927E-002
  -9.6549    0.6593E-002
  -9.6474    0.8740E-002
  -9.6399    0.1148E-001
  -9.6324    0.1493E-001
  -9.6249    0.1925E-001
  -9.6174    0.2458E-001
  -9.6099    0.3110E-001
  -9.6024    0.3900E-001
  -9.5949    0.4847E-001
  -9.5874    0.5970E-001
  -9.5799    0.7290E-001
  -9.5724    0.8824E-001
  -9.5649    0.1059E+000
  -9.5574    0.1260E+000
  -9.5499    0.1487E+000
  -9.5424    0.1740E+000
  -9.5349    0.2019E+000
  -9.5274    0.2325E+000
  -9.5199    0.2655E+000
  -9.5124    0.3008E+000
  -9.5049    0.3382E+000
  -9.4974    0.3772E+000
  -9.4899    0.4176E+000
  -9.4824    0.4587E+000
  -9.4749    0.5002E+000
  -9.4674    0.5414E+000
  -9.4599    0.5816E+000
  -9.4524    0.6204E+000
  -9.4449    0.6570E+000
  -9.4374    0.6908E+000
  -9.4299    0.7214E+000
  -9.4224    0.7481E+000
  -9.4149    0.7705E+000
  -9.4074    0.7883E+000
  -9.3998    0.8011E+000
  -9.3923    0.8089E+000
  -9.3848    0.8114E+000
  -9.3773    0.8088E+000
  -9.3698    0.8012E+000
  -9.3623    0.7887E+000
  -9.3548    0.7716E+000
  -9.3473    0.7503E+000
  -9.3398    0.7252E+000
  -9.3323    0.6967E+000
  -9.3248    0.6652E+000
  -9.3173    0.6314E+000
  -9.3098    0.5956E+000
  -9.3023    0.5584E+000
  -9.2948    0.5204E+000
  -9.2873    0.4819E+000
  -9.2798    0.4434E+000
  -9.2723    0.4054E+000
  -9.2648    0.3684E+000
  -9.2573    0.3327E+000
  -9.2498    0.2986E+000
  -9.2423    0.2665E+000
  -9.2348    0.2366E+000
  -9.2273    0.2093E+000
  -9.2198    0.1848E+000
  -9.2123    0.1631E+000
  -9.2048    0.1446E+000
  -9.1973    0.1292E+000
  -9.1898    0.1170E+000
  -9.1823    0.1082E+000
  -9.1748    0.1028E+000
  -9.1673    0.1007E+000
  -9.1598    0.1020E+000
  -9.1523    0.1065E+000
  -9.1448    0.1143E+000
  -9.1373    0.1252E+000
  -9.1298    0.1391E+000
  -9.1223    0.1558E+000
  -9.1148    0.1750E+000
  -9.1073    0.1966E+000
  -9.0998    0.2201E+000
  -9.0923    0.2452E+000
  -9.0848    0.2716E+000
  -9.0773    0.2986E+000
  -9.0698    0.3260E+000
  -9.0623    0.3531E+000
  -9.0548    0.3794E+000
  -9.0473    0.4045E+000
  -9.0398    0.4279E+000
  -9.0323    0.4492E+000
  -9.0248    0.4679E+000
  -9.0173    0.4838E+000
  -9.0098    0.4966E+000
  -9.0023    0.5064E+000
  -8.9947    0.5130E+000
  -8.9872    0.5166E+000
  -8.9797    0.5175E+000
  -8.9722    0.5159E+000
  -8.9647    0.5124E+000
  -8.9572    0.5074E+000
  -8.9497    0.5017E+000
  -8.9422    0.4958E+000
  -8.9347    0.4905E+000
  -8.9272    0.4863E+000
  -8.9197    0.4841E+000
  -8.9122    0.4843E+000
  -8.9047    0.4875E+000
  -8.8972    0.4939E+000
  -8.8897    0.5039E+000
  -8.8822    0.5174E+000
  -8.8747    0.5344E+000
  -8.8672    0.5545E+000
  -8.8597    0.5774E+000
  -8.8522    0.6024E+000
  -8.8447    0.6289E+000
  -8.8372    0.6559E+000
  -8.8297    0.6827E+000
  -8.8222    0.7083E+000
  -8.8147    0.7320E+000
  -8.8072    0.7528E+000
  -8.7997    0.7700E+000
  -8.7922    0.7832E+000
  -8.7847    0.7918E+000
  -8.7772    0.7955E+000
  -8.7697    0.7944E+000
  -8.7622    0.7886E+000
  -8.7547    0.7782E+000
  -8.7472    0.7638E+000
  -8.7397    0.7459E+000
  -8.7322    0.7253E+000
  -8.7247    0.7028E+000
  -8.7172    0.6791E+000
  -8.7097    0.6550E+000
  -8.7022    0.6315E+000
  -8.6947    0.6092E+000
  -8.6872    0.5888E+000
  -8.6797    0.5708E+000
  -8.6722    0.5557E+000
  -8.6647    0.5437E+000
  -8.6572    0.5348E+000
  -8.6497    0.5292E+000
  -8.6422    0.5266E+000
  -8.6347    0.5267E+000
  -8.6272    0.5291E+000
  -8.6197    0.5333E+000
  -8.6122    0.5388E+000
  -8.6047    0.5449E+000
  -8.5971    0.5511E+000
  -8.5896    0.5568E+000
  -8.5821    0.5614E+000
  -8.5746    0.5645E+000
  -8.5671    0.5655E+000
  -8.5596    0.5642E+000
  -8.5521    0.5603E+000
  -8.5446    0.5537E+000
  -8.5371    0.5444E+000
  -8.5296    0.5324E+000
  -8.5221    0.5179E+000
  -8.5146    0.5012E+000
  -8.5071    0.4826E+000
  -8.4996    0.4627E+000
  -8.4921    0.4419E+000
  -8.4846    0.4207E+000
  -8.4771    0.3997E+000
  -8.4696    0.3795E+000
  -8.4621    0.3607E+000
  -8.4546    0.3438E+000
  -8.4471    0.3294E+000
  -8.4396    0.3178E+000
  -8.4321    0.3096E+000
  -8.4246    0.3049E+000
  -8.4171    0.3040E+000
  -8.4096    0.3070E+000
  -8.4021    0.3139E+000
  -8.3946    0.3245E+000
  -8.3871    0.3387E+000
  -8.3796    0.3561E+000
  -8.3721    0.3762E+000
  -8.3646    0.3984E+000
  -8.3571    0.4223E+000
  -8.3496    0.4471E+000
  -8.3421    0.4720E+000
  -8.3346    0.4964E+000
  -8.3271    0.5195E+000
  -8.3196    0.5406E+000
  -8.3121    0.5590E+000
  -8.3046    0.5743E+000
  -8.2971    0.5859E+000
  -8.2896    0.5935E+000
  -8.2821    0.5968E+000
  -8.2746    0.5958E+000
  -8.2671    0.5905E+000
  -8.2596    0.5810E+000
  -8.2521    0.5676E+000
  -8.2446    0.5507E+000
  -8.2371    0.5307E+000
  -8.2296    0.5081E+000
  -8.2221    0.4835E+000
  -8.2146    0.4575E+000
  -8.2071    0.4306E+000
  -8.1995    0.4034E+000
  -8.1920    0.3765E+000
  -8.1845    0.3503E+000
  -8.1770    0.3253E+000
  -8.1695    0.3017E+000
  -8.1620    0.2801E+000
  -8.1545    0.2605E+000
  -8.1470    0.2431E+000
  -8.1395    0.2280E+000
  -8.1320    0.2154E+000
  -8.1245    0.2050E+000
  -8.1170    0.1970E+000
  -8.1095    0.1911E+000
  -8.1020    0.1874E+000
  -8.0945    0.1855E+000
  -8.0870    0.1855E+000
  -8.0795    0.1871E+000
  -8.0720    0.1902E+000
  -8.0645    0.1948E+000
  -8.0570    0.2006E+000
  -8.0495    0.2077E+000
  -8.0420    0.2161E+000
  -8.0345    0.2257E+000
  -8.0270    0.2367E+000
  -8.0195    0.2490E+000
  -8.0120    0.2629E+000
  -8.0045    0.2784E+000
  -7.9970    0.2958E+000
  -7.9895    0.3153E+000
  -7.9820    0.3371E+000
  -7.9745    0.3615E+000
  -7.9670    0.3887E+000
  -7.9595    0.4188E+000
  -7.9520    0.4522E+000
  -7.9445    0.4889E+000
  -7.9370    0.5291E+000
  -7.9295    0.5727E+000
  -7.9220    0.6198E+000
  -7.9145    0.6702E+000
  -7.9070    0.7236E+000
  -7.8995    0.7795E+000
  -7.8920    0.8376E+000
  -7.8845    0.8970E+000
  -7.8770    0.9572E+000
  -7.8695    0.1017E+001
  -7.8620    0.1076E+001
  -7.8545    0.1132E+001
  -7.8470    0.1185E+001
  -7.8395    0.1234E+001
  -7.8320    0.1277E+001
  -7.8245    0.1313E+001
  -7.8170    0.1343E+001
  -7.8095    0.1364E+001
  -7.8020    0.1376E+001
  -7.7944    0.1380E+001
  -7.7869    0.1374E+001
  -7.7794    0.1360E+001
  -7.7719    0.1336E+001
  -7.7644    0.1305E+001
  -7.7569    0.1266E+001
  -7.7494    0.1221E+001
  -7.7419    0.1170E+001
  -7.7344    0.1114E+001
  -7.7269    0.1055E+001
  -7.7194    0.9945E+000
  -7.7119    0.9328E+000
  -7.7044    0.8715E+000
  -7.6969    0.8117E+000
  -7.6894    0.7543E+000
  -7.6819    0.7005E+000
  -7.6744    0.6509E+000
  -7.6669    0.6064E+000
  -7.6594    0.5676E+000
  -7.6519    0.5351E+000
  -7.6444    0.5091E+000
  -7.6369    0.4901E+000
  -7.6294    0.4781E+000
  -7.6219    0.4732E+000
  -7.6144    0.4753E+000
  -7.6069    0.4842E+000
  -7.5994    0.4996E+000
  -7.5919    0.5209E+000
  -7.5844    0.5476E+000
  -7.5769    0.5788E+000
  -7.5694    0.6139E+000
  -7.5619    0.6517E+000
  -7.5544    0.6913E+000
  -7.5469    0.7316E+000
  -7.5394    0.7714E+000
  -7.5319    0.8097E+000
  -7.5244    0.8452E+000
  -7.5169    0.8771E+000
  -7.5094    0.9044E+000
  -7.5019    0.9264E+000
  -7.4944    0.9423E+000
  -7.4869    0.9517E+000
  -7.4794    0.9545E+000
  -7.4719    0.9504E+000
  -7.4644    0.9398E+000
  -7.4569    0.9228E+000
  -7.4494    0.8999E+000
  -7.4419    0.8719E+000
  -7.4344    0.8393E+000
  -7.4269    0.8029E+000
  -7.4194    0.7636E+000
  -7.4119    0.7223E+000
  -7.4044    0.6796E+000
  -7.3968    0.6364E+000
  -7.3893    0.5933E+000
  -7.3818    0.5510E+000
  -7.3743    0.5098E+000
  -7.3668    0.4703E+000
  -7.3593    0.4328E+000
  -7.3518    0.3975E+000
  -7.3443    0.3646E+000
  -7.3368    0.3341E+000
  -7.3293    0.3063E+000
  -7.3218    0.2810E+000
  -7.3143    0.2584E+000
  -7.3068    0.2385E+000
  -7.2993    0.2212E+000
  -7.2918    0.2067E+000
  -7.2843    0.1948E+000
  -7.2768    0.1856E+000
  -7.2693    0.1793E+000
  -7.2618    0.1757E+000
  -7.2543    0.1749E+000
  -7.2468    0.1770E+000
  -7.2393    0.1821E+000
  -7.2318    0.1902E+000
  -7.2243    0.2015E+000
  -7.2168    0.2160E+000
  -7.2093    0.2338E+000
  -7.2018    0.2552E+000
  -7.1943    0.2802E+000
  -7.1868    0.3090E+000
  -7.1793    0.3418E+000
  -7.1718    0.3787E+000
  -7.1643    0.4198E+000
  -7.1568    0.4651E+000
  -7.1493    0.5146E+000
  -7.1418    0.5681E+000
  -7.1343    0.6253E+000
  -7.1268    0.6858E+000
  -7.1193    0.7491E+000
  -7.1118    0.8144E+000
  -7.1043    0.8810E+000
  -7.0968    0.9479E+000
  -7.0893    0.1014E+001
  -7.0818    0.1079E+001
  -7.0743    0.1140E+001
  -7.0668    0.1198E+001
  -7.0593    0.1251E+001
  -7.0518    0.1299E+001
  -7.0443    0.1340E+001
  -7.0368    0.1375E+001
  -7.0293    0.1403E+001
  -7.0218    0.1424E+001
  -7.0143    0.1439E+001
  -7.0068    0.1449E+001
  -6.9992    0.1452E+001
  -6.9917    0.1452E+001
  -6.9842    0.1448E+001
  -6.9767    0.1441E+001
  -6.9692    0.1433E+001
  -6.9617    0.1424E+001
  -6.9542    0.1415E+001
  -6.9467    0.1406E+001
  -6.9392    0.1398E+001
  -6.9317    0.1390E+001
  -6.9242    0.1383E+001
  -6.9167    0.1377E+001
  -6.9092    0.1370E+001
  -6.9017    0.1363E+001
  -6.8942    0.1356E+001
  -6.8867    0.1346E+001
  -6.8792    0.1334E+001
  -6.8717    0.1320E+001
  -6.8642    0.1303E+001
  -6.8567    0.1282E+001
  -6.8492    0.1258E+001
  -6.8417    0.1231E+001
  -6.8342    0.1201E+001
  -6.8267    0.1168E+001
  -6.8192    0.1134E+001
  -6.8117    0.1098E+001
  -6.8042    0.1062E+001
  -6.7967    0.1025E+001
  -6.7892    0.9897E+000
  -6.7817    0.9555E+000
  -6.7742    0.9230E+000
  -6.7667    0.8929E+000
  -6.7592    0.8653E+000
  -6.7517    0.8404E+000
  -6.7442    0.8181E+000
  -6.7367    0.7984E+000
  -6.7292    0.7809E+000
  -6.7217    0.7653E+000
  -6.7142    0.7513E+000
  -6.7067    0.7383E+000
  -6.6992    0.7260E+000
  -6.6917    0.7139E+000
  -6.6842    0.7017E+000
  -6.6767    0.6893E+000
  -6.6692    0.6764E+000
  -6.6617    0.6632E+000
  -6.6542    0.6498E+000
  -6.6467    0.6366E+000
  -6.6392    0.6239E+000
  -6.6317    0.6124E+000
  -6.6242    0.6028E+000
  -6.6167    0.5957E+000
  -6.6092    0.5919E+000
  -6.6017    0.5922E+000
  -6.5941    0.5972E+000
  -6.5866    0.6074E+000
  -6.5791    0.6232E+000
  -6.5716    0.6449E+000
  -6.5641    0.6725E+000
  -6.5566    0.7059E+000
  -6.5491    0.7445E+000
  -6.5416    0.7877E+000
  -6.5341    0.8348E+000
  -6.5266    0.8848E+000
  -6.5191    0.9365E+000
  -6.5116    0.9889E+000
  -6.5041    0.1041E+001
  -6.4966    0.1091E+001
  -6.4891    0.1138E+001
  -6.4816    0.1182E+001
  -6.4741    0.1221E+001
  -6.4666    0.1255E+001
  -6.4591    0.1283E+001
  -6.4516    0.1306E+001
  -6.4441    0.1323E+001
  -6.4366    0.1334E+001
  -6.4291    0.1340E+001
  -6.4216    0.1341E+001
  -6.4141    0.1337E+001
  -6.4066    0.1328E+001
  -6.3991    0.1316E+001
  -6.3916    0.1300E+001
  -6.3841    0.1280E+001
  -6.3766    0.1257E+001
  -6.3691    0.1232E+001
  -6.3616    0.1203E+001
  -6.3541    0.1171E+001
  -6.3466    0.1137E+001
  -6.3391    0.1100E+001
  -6.3316    0.1061E+001
  -6.3241    0.1019E+001
  -6.3166    0.9747E+000
  -6.3091    0.9290E+000
  -6.3016    0.8820E+000
  -6.2941    0.8342E+000
  -6.2866    0.7862E+000
  -6.2791    0.7386E+000
  -6.2716    0.6922E+000
  -6.2641    0.6475E+000
  -6.2566    0.6051E+000
  -6.2491    0.5657E+000
  -6.2416    0.5297E+000
  -6.2341    0.4975E+000
  -6.2266    0.4696E+000
  -6.2191    0.4461E+000
  -6.2116    0.4270E+000
  -6.2041    0.4125E+000
  -6.1965    0.4025E+000
  -6.1890    0.3967E+000
  -6.1815    0.3950E+000
  -6.1740    0.3970E+000
  -6.1665    0.4025E+000
  -6.1590    0.4111E+000
  -6.1515    0.4223E+000
  -6.1440    0.4360E+000
  -6.1365    0.4516E+000
  -6.1290    0.4690E+000
  -6.1215    0.4878E+000
  -6.1140    0.5077E+000
  -6.1065    0.5286E+000
  -6.0990    0.5504E+000
  -6.0915    0.5728E+000
  -6.0840    0.5960E+000
  -6.0765    0.6198E+000
  -6.0690    0.6444E+000
  -6.0615    0.6698E+000
  -6.0540    0.6960E+000
  -6.0465    0.7231E+000
  -6.0390    0.7512E+000
  -6.0315    0.7801E+000
  -6.0240    0.8099E+000
  -6.0165    0.8402E+000
  -6.0090    0.8708E+000
  -6.0015    0.9013E+000
  -5.9940    0.9311E+000
  -5.9865    0.9596E+000
  -5.9790    0.9860E+000
  -5.9715    0.1010E+001
  -5.9640    0.1030E+001
  -5.9565    0.1046E+001
  -5.9490    0.1057E+001
  -5.9415    0.1063E+001
  -5.9340    0.1063E+001
  -5.9265    0.1057E+001
  -5.9190    0.1045E+001
  -5.9115    0.1028E+001
  -5.9040    0.1004E+001
  -5.8965    0.9762E+000
  -5.8890    0.9438E+000
  -5.8815    0.9078E+000
  -5.8740    0.8692E+000
  -5.8665    0.8288E+000
  -5.8590    0.7874E+000
  -5.8515    0.7460E+000
  -5.8440    0.7051E+000
  -5.8365    0.6656E+000
  -5.8290    0.6278E+000
  -5.8215    0.5923E+000
  -5.8140    0.5594E+000
  -5.8065    0.5291E+000
  -5.7989    0.5015E+000
  -5.7914    0.4766E+000
  -5.7839    0.4543E+000
  -5.7764    0.4343E+000
  -5.7689    0.4164E+000
  -5.7614    0.4004E+000
  -5.7539    0.3858E+000
  -5.7464    0.3725E+000
  -5.7389    0.3600E+000
  -5.7314    0.3482E+000
  -5.7239    0.3367E+000
  -5.7164    0.3255E+000
  -5.7089    0.3143E+000
  -5.7014    0.3032E+000
  -5.6939    0.2921E+000
  -5.6864    0.2810E+000
  -5.6789    0.2701E+000
  -5.6714    0.2596E+000
  -5.6639    0.2498E+000
  -5.6564    0.2409E+000
  -5.6489    0.2333E+000
  -5.6414    0.2273E+000
  -5.6339    0.2234E+000
  -5.6264    0.2219E+000
  -5.6189    0.2233E+000
  -5.6114    0.2279E+000
  -5.6039    0.2360E+000
  -5.5964    0.2481E+000
  -5.5889    0.2644E+000
  -5.5814    0.2851E+000
  -5.5739    0.3105E+000
  -5.5664    0.3405E+000
  -5.5589    0.3753E+000
  -5.5514    0.4148E+000
  -5.5439    0.4588E+000
  -5.5364    0.5070E+000
  -5.5289    0.5591E+000
  -5.5214    0.6144E+000
  -5.5139    0.6725E+000
  -5.5064    0.7326E+000
  -5.4989    0.7937E+000
  -5.4914    0.8551E+000
  -5.4839    0.9157E+000
  -5.4764    0.9745E+000
  -5.4689    0.1030E+001
  -5.4614    0.1083E+001
  -5.4539    0.1130E+001
  -5.4464    0.1173E+001
  -5.4389    0.1209E+001
  -5.4314    0.1239E+001
  -5.4239    0.1262E+001
  -5.4164    0.1278E+001
  -5.4089    0.1288E+001
  -5.4014    0.1292E+001
  -5.3938    0.1291E+001
  -5.3863    0.1284E+001
  -5.3788    0.1273E+001
  -5.3713    0.1259E+001
  -5.3638    0.1242E+001
  -5.3563    0.1223E+001
  -5.3488    0.1202E+001
  -5.3413    0.1180E+001
  -5.3338    0.1157E+001
  -5.3263    0.1134E+001
  -5.3188    0.1110E+001
  -5.3113    0.1086E+001
  -5.3038    0.1061E+001
  -5.2963    0.1035E+001
  -5.2888    0.1009E+001
  -5.2813    0.9811E+000
  -5.2738    0.9521E+000
  -5.2663    0.9218E+000
  -5.2588    0.8903E+000
  -5.2513    0.8577E+000
  -5.2438    0.8240E+000
  -5.2363    0.7897E+000
  -5.2288    0.7551E+000
  -5.2213    0.7205E+000
  -5.2138    0.6862E+000
  -5.2063    0.6527E+000
  -5.1988    0.6204E+000
  -5.1913    0.5894E+000
  -5.1838    0.5602E+000
  -5.1763    0.5327E+000
  -5.1688    0.5072E+000
  -5.1613    0.4837E+000
  -5.1538    0.4620E+000
  -5.1463    0.4421E+000
  -5.1388    0.4239E+000
  -5.1313    0.4071E+000
  -5.1238    0.3916E+000
  -5.1163    0.3771E+000
  -5.1088    0.3635E+000
  -5.1013    0.3505E+000
  -5.0938    0.3382E+000
  -5.0863    0.3263E+000
  -5.0788    0.3148E+000
  -5.0713    0.3038E+000
  -5.0638    0.2932E+000
  -5.0563    0.2831E+000
  -5.0488    0.2736E+000
  -5.0413    0.2648E+000
  -5.0338    0.2568E+000
  -5.0263    0.2496E+000
  -5.0188    0.2434E+000
  -5.0113    0.2382E+000
  -5.0038    0.2342E+000
  -4.9962    0.2313E+000
  -4.9887    0.2295E+000
  -4.9812    0.2289E+000
  -4.9737    0.2295E+000
  -4.9662    0.2312E+000
  -4.9587    0.2340E+000
  -4.9512    0.2378E+000
  -4.9437    0.2424E+000
  -4.9362    0.2479E+000
  -4.9287    0.2542E+000
  -4.9212    0.2610E+000
  -4.9137    0.2683E+000
  -4.9062    0.2760E+000
  -4.8987    0.2839E+000
  -4.8912    0.2919E+000
  -4.8837    0.2999E+000
  -4.8762    0.3078E+000
  -4.8687    0.3156E+000
  -4.8612    0.3232E+000
  -4.8537    0.3306E+000
  -4.8462    0.3377E+000
  -4.8387    0.3448E+000
  -4.8312    0.3518E+000
  -4.8237    0.3590E+000
  -4.8162    0.3665E+000
  -4.8087    0.3746E+000
  -4.8012    0.3834E+000
  -4.7937    0.3933E+000
  -4.7862    0.4045E+000
  -4.7787    0.4173E+000
  -4.7712    0.4318E+000
  -4.7637    0.4484E+000
  -4.7562    0.4670E+000
  -4.7487    0.4879E+000
  -4.7412    0.5109E+000
  -4.7337    0.5361E+000
  -4.7262    0.5632E+000
  -4.7187    0.5921E+000
  -4.7112    0.6224E+000
  -4.7037    0.6537E+000
  -4.6962    0.6857E+000
  -4.6887    0.7179E+000
  -4.6812    0.7498E+000
  -4.6737    0.7812E+000
  -4.6662    0.8115E+000
  -4.6587    0.8405E+000
  -4.6512    0.8679E+000
  -4.6437    0.8935E+000
  -4.6362    0.9172E+000
  -4.6287    0.9390E+000
  -4.6212    0.9589E+000
  -4.6137    0.9767E+000
  -4.6062    0.9926E+000
  -4.5986    0.1006E+001
  -4.5911    0.1018E+001
  -4.5836    0.1028E+001
  -4.5761    0.1035E+001
  -4.5686    0.1040E+001
  -4.5611    0.1041E+001
  -4.5536    0.1040E+001
  -4.5461    0.1035E+001
  -4.5386    0.1025E+001
  -4.5311    0.1012E+001
  -4.5236    0.9942E+000
  -4.5161    0.9719E+000
  -4.5086    0.9452E+000
  -4.5011    0.9142E+000
  -4.4936    0.8794E+000
  -4.4861    0.8413E+000
  -4.4786    0.8006E+000
  -4.4711    0.7580E+000
  -4.4636    0.7146E+000
  -4.4561    0.6711E+000
  -4.4486    0.6287E+000
  -4.4411    0.5881E+000
  -4.4336    0.5504E+000
  -4.4261    0.5164E+000
  -4.4186    0.4866E+000
  -4.4111    0.4618E+000
  -4.4036    0.4422E+000
  -4.3961    0.4282E+000
  -4.3886    0.4197E+000
  -4.3811    0.4167E+000
  -4.3736    0.4188E+000
  -4.3661    0.4257E+000
  -4.3586    0.4368E+000
  -4.3511    0.4514E+000
  -4.3436    0.4689E+000
  -4.3361    0.4883E+000
  -4.3286    0.5090E+000
  -4.3211    0.5300E+000
  -4.3136    0.5505E+000
  -4.3061    0.5698E+000
  -4.2986    0.5872E+000
  -4.2911    0.6021E+000
  -4.2836    0.6140E+000
  -4.2761    0.6226E+000
  -4.2686    0.6275E+000
  -4.2611    0.6287E+000
  -4.2536    0.6262E+000
  -4.2461    0.6199E+000
  -4.2386    0.6102E+000
  -4.2311    0.5971E+000
  -4.2236    0.5812E+000
  -4.2161    0.5626E+000
  -4.2086    0.5418E+000
  -4.2011    0.5193E+000
  -4.1935    0.4954E+000
  -4.1860    0.4706E+000
  -4.1785    0.4453E+000
  -4.1710    0.4200E+000
  -4.1635    0.3952E+000
  -4.1560    0.3712E+000
  -4.1485    0.3486E+000
  -4.1410    0.3278E+000
  -4.1335    0.3091E+000
  -4.1260    0.2930E+000
  -4.1185    0.2798E+000
  -4.1110    0.2699E+000
  -4.1035    0.2635E+000
  -4.0960    0.2609E+000
  -4.0885    0.2620E+000
  -4.0810    0.2671E+000
  -4.0735    0.2759E+000
  -4.0660    0.2883E+000
  -4.0585    0.3040E+000
  -4.0510    0.3226E+000
  -4.0435    0.3438E+000
  -4.0360    0.3668E+000
  -4.0285    0.3912E+000
  -4.0210    0.4163E+000
  -4.0135    0.4414E+000
  -4.0060    0.4660E+000
  -3.9985    0.4895E+000
  -3.9910    0.5113E+000
  -3.9835    0.5311E+000
  -3.9760    0.5485E+000
  -3.9685    0.5633E+000
  -3.9610    0.5755E+000
  -3.9535    0.5850E+000
  -3.9460    0.5920E+000
  -3.9385    0.5966E+000
  -3.9310    0.5991E+000
  -3.9235    0.5998E+000
  -3.9160    0.5990E+000
  -3.9085    0.5970E+000
  -3.9010    0.5940E+000
  -3.8935    0.5903E+000
  -3.8860    0.5859E+000
  -3.8785    0.5811E+000
  -3.8710    0.5758E+000
  -3.8635    0.5701E+000
  -3.8560    0.5639E+000
  -3.8485    0.5572E+000
  -3.8410    0.5501E+000
  -3.8335    0.5424E+000
  -3.8260    0.5343E+000
  -3.8185    0.5259E+000
  -3.8110    0.5172E+000
  -3.8035    0.5085E+000
  -3.7959    0.5000E+000
  -3.7884    0.4920E+000
  -3.7809    0.4847E+000
  -3.7734    0.4783E+000
  -3.7659    0.4733E+000
  -3.7584    0.4697E+000
  -3.7509    0.4677E+000
  -3.7434    0.4675E+000
  -3.7359    0.4692E+000
  -3.7284    0.4726E+000
  -3.7209    0.4778E+000
  -3.7134    0.4847E+000
  -3.7059    0.4930E+000
  -3.6984    0.5026E+000
  -3.6909    0.5132E+000
  -3.6834    0.5245E+000
  -3.6759    0.5364E+000
  -3.6684    0.5484E+000
  -3.6609    0.5602E+000
  -3.6534    0.5716E+000
  -3.6459    0.5823E+000
  -3.6384    0.5921E+000
  -3.6309    0.6006E+000
  -3.6234    0.6078E+000
  -3.6159    0.6135E+000
  -3.6084    0.6176E+000
  -3.6009    0.6202E+000
  -3.5934    0.6213E+000
  -3.5859    0.6211E+000
  -3.5784    0.6199E+000
  -3.5709    0.6179E+000
  -3.5634    0.6154E+000
  -3.5559    0.6130E+000
  -3.5484    0.6108E+000
  -3.5409    0.6094E+000
  -3.5334    0.6090E+000
  -3.5259    0.6099E+000
  -3.5184    0.6123E+000
  -3.5109    0.6163E+000
  -3.5034    0.6219E+000
  -3.4959    0.6289E+000
  -3.4884    0.6372E+000
  -3.4809    0.6463E+000
  -3.4734    0.6560E+000
  -3.4659    0.6656E+000
  -3.4584    0.6748E+000
  -3.4509    0.6831E+000
  -3.4434    0.6899E+000
  -3.4359    0.6948E+000
  -3.4284    0.6975E+000
  -3.4209    0.6978E+000
  -3.4134    0.6955E+000
  -3.4059    0.6906E+000
  -3.3983    0.6832E+000
  -3.3908    0.6734E+000
  -3.3833    0.6617E+000
  -3.3758    0.6483E+000
  -3.3683    0.6336E+000
  -3.3608    0.6182E+000
  -3.3533    0.6025E+000
  -3.3458    0.5870E+000
  -3.3383    0.5720E+000
  -3.3308    0.5579E+000
  -3.3233    0.5450E+000
  -3.3158    0.5336E+000
  -3.3083    0.5238E+000
  -3.3008    0.5155E+000
  -3.2933    0.5090E+000
  -3.2858    0.5039E+000
  -3.2783    0.5002E+000
  -3.2708    0.4978E+000
  -3.2633    0.4963E+000
  -3.2558    0.4955E+000
  -3.2483    0.4952E+000
  -3.2408    0.4951E+000
  -3.2333    0.4950E+000
  -3.2258    0.4947E+000
  -3.2183    0.4939E+000
  -3.2108    0.4925E+000
  -3.2033    0.4904E+000
  -3.1958    0.4875E+000
  -3.1883    0.4838E+000
  -3.1808    0.4794E+000
  -3.1733    0.4741E+000
  -3.1658    0.4682E+000
  -3.1583    0.4616E+000
  -3.1508    0.4545E+000
  -3.1433    0.4470E+000
  -3.1358    0.4391E+000
  -3.1283    0.4311E+000
  -3.1208    0.4229E+000
  -3.1133    0.4148E+000
  -3.1058    0.4068E+000
  -3.0983    0.3989E+000
  -3.0908    0.3913E+000
  -3.0833    0.3841E+000
  -3.0758    0.3773E+000
  -3.0683    0.3709E+000
  -3.0608    0.3650E+000
  -3.0533    0.3596E+000
  -3.0458    0.3548E+000
  -3.0383    0.3504E+000
  -3.0308    0.3465E+000
  -3.0233    0.3430E+000
  -3.0158    0.3399E+000
  -3.0083    0.3371E+000
  -3.0008    0.3345E+000
  -2.9932    0.3320E+000
  -2.9857    0.3294E+000
  -2.9782    0.3268E+000
  -2.9707    0.3239E+000
  -2.9632    0.3207E+000
  -2.9557    0.3172E+000
  -2.9482    0.3134E+000
  -2.9407    0.3091E+000
  -2.9332    0.3045E+000
  -2.9257    0.2995E+000
  -2.9182    0.2944E+000
  -2.9107    0.2893E+000
  -2.9032    0.2842E+000
  -2.8957    0.2793E+000
  -2.8882    0.2748E+000
  -2.8807    0.2709E+000
  -2.8732    0.2676E+000
  -2.8657    0.2652E+000
  -2.8582    0.2636E+000
  -2.8507    0.2630E+000
  -2.8432    0.2634E+000
  -2.8357    0.2646E+000
  -2.8282    0.2667E+000
  -2.8207    0.2695E+000
  -2.8132    0.2729E+000
  -2.8057    0.2767E+000
  -2.7982    0.2809E+000
  -2.7907    0.2852E+000
  -2.7832    0.2895E+000
  -2.7757    0.2938E+000
  -2.7682    0.2978E+000
  -2.7607    0.3015E+000
  -2.7532    0.3049E+000
  -2.7457    0.3079E+000
  -2.7382    0.3106E+000
  -2.7307    0.3131E+000
  -2.7232    0.3154E+000
  -2.7157    0.3175E+000
  -2.7082    0.3197E+000
  -2.7007    0.3219E+000
  -2.6932    0.3245E+000
  -2.6857    0.3275E+000
  -2.6782    0.3310E+000
  -2.6707    0.3352E+000
  -2.6632    0.3403E+000
  -2.6557    0.3463E+000
  -2.6482    0.3533E+000
  -2.6407    0.3614E+000
  -2.6332    0.3706E+000
  -2.6257    0.3810E+000
  -2.6182    0.3924E+000
  -2.6107    0.4048E+000
  -2.6032    0.4181E+000
  -2.5956    0.4321E+000
  -2.5881    0.4465E+000
  -2.5806    0.4613E+000
  -2.5731    0.4761E+000
  -2.5656    0.4908E+000
  -2.5581    0.5051E+000
  -2.5506    0.5187E+000
  -2.5431    0.5316E+000
  -2.5356    0.5436E+000
  -2.5281    0.5546E+000
  -2.5206    0.5645E+000
  -2.5131    0.5733E+000
  -2.5056    0.5812E+000
  -2.4981    0.5880E+000
  -2.4906    0.5940E+000
  -2.4831    0.5993E+000
  -2.4756    0.6039E+000
  -2.4681    0.6081E+000
  -2.4606    0.6119E+000
  -2.4531    0.6154E+000
  -2.4456    0.6186E+000
  -2.4381    0.6215E+000
  -2.4306    0.6241E+000
  -2.4231    0.6262E+000
  -2.4156    0.6277E+000
  -2.4081    0.6285E+000
  -2.4006    0.6283E+000
  -2.3931    0.6269E+000
  -2.3856    0.6242E+000
  -2.3781    0.6198E+000
  -2.3706    0.6137E+000
  -2.3631    0.6058E+000
  -2.3556    0.5959E+000
  -2.3481    0.5841E+000
  -2.3406    0.5704E+000
  -2.3331    0.5551E+000
  -2.3256    0.5382E+000
  -2.3181    0.5199E+000
  -2.3106    0.5007E+000
  -2.3031    0.4806E+000
  -2.2956    0.4601E+000
  -2.2881    0.4395E+000
  -2.2806    0.4189E+000
  -2.2731    0.3987E+000
  -2.2656    0.3791E+000
  -2.2581    0.3602E+000
  -2.2506    0.3422E+000
  -2.2431    0.3253E+000
  -2.2356    0.3094E+000
  -2.2281    0.2946E+000
  -2.2206    0.2809E+000
  -2.2131    0.2683E+000
  -2.2056    0.2568E+000
  -2.1980    0.2464E+000
  -2.1905    0.2370E+000
  -2.1830    0.2287E+000
  -2.1755    0.2213E+000
  -2.1680    0.2149E+000
  -2.1605    0.2095E+000
  -2.1530    0.2049E+000
  -2.1455    0.2013E+000
  -2.1380    0.1985E+000
  -2.1305    0.1964E+000
  -2.1230    0.1950E+000
  -2.1155    0.1941E+000
  -2.1080    0.1937E+000
  -2.1005    0.1936E+000
  -2.0930    0.1937E+000
  -2.0855    0.1939E+000
  -2.0780    0.1941E+000
  -2.0705    0.1940E+000
  -2.0630    0.1937E+000
  -2.0555    0.1931E+000
  -2.0480    0.1922E+000
  -2.0405    0.1908E+000
  -2.0330    0.1890E+000
  -2.0255    0.1869E+000
  -2.0180    0.1845E+000
  -2.0105    0.1817E+000
  -2.0030    0.1787E+000
  -1.9955    0.1755E+000
  -1.9880    0.1722E+000
  -1.9805    0.1688E+000
  -1.9730    0.1654E+000
  -1.9655    0.1619E+000
  -1.9580    0.1584E+000
  -1.9505    0.1550E+000
  -1.9430    0.1515E+000
  -1.9355    0.1482E+000
  -1.9280    0.1449E+000
  -1.9205    0.1417E+000
  -1.9130    0.1387E+000
  -1.9055    0.1359E+000
  -1.8980    0.1333E+000
  -1.8905    0.1311E+000
  -1.8830    0.1294E+000
  -1.8755    0.1282E+000
  -1.8680    0.1276E+000
  -1.8605    0.1278E+000
  -1.8530    0.1288E+000
  -1.8455    0.1308E+000
  -1.8380    0.1336E+000
  -1.8305    0.1375E+000
  -1.8230    0.1423E+000
  -1.8155    0.1480E+000
  -1.8080    0.1545E+000
  -1.8005    0.1618E+000
  -1.7929    0.1696E+000
  -1.7854    0.1779E+000
  -1.7779    0.1864E+000
  -1.7704    0.1949E+000
  -1.7629    0.2033E+000
  -1.7554    0.2113E+000
  -1.7479    0.2188E+000
  -1.7404    0.2256E+000
  -1.7329    0.2316E+000
  -1.7254    0.2366E+000
  -1.7179    0.2405E+000
  -1.7104    0.2434E+000
  -1.7029    0.2451E+000
  -1.6954    0.2458E+000
  -1.6879    0.2453E+000
  -1.6804    0.2439E+000
  -1.6729    0.2415E+000
  -1.6654    0.2382E+000
  -1.6579    0.2343E+000
  -1.6504    0.2297E+000
  -1.6429    0.2247E+000
  -1.6354    0.2194E+000
  -1.6279    0.2138E+000
  -1.6204    0.2081E+000
  -1.6129    0.2023E+000
  -1.6054    0.1966E+000
  -1.5979    0.1910E+000
  -1.5904    0.1855E+000
  -1.5829    0.1803E+000
  -1.5754    0.1753E+000
  -1.5679    0.1705E+000
  -1.5604    0.1661E+000
  -1.5529    0.1619E+000
  -1.5454    0.1581E+000
  -1.5379    0.1547E+000
  -1.5304    0.1517E+000
  -1.5229    0.1493E+000
  -1.5154    0.1473E+000
  -1.5079    0.1459E+000
  -1.5004    0.1452E+000
  -1.4929    0.1450E+000
  -1.4854    0.1455E+000
  -1.4779    0.1466E+000
  -1.4704    0.1483E+000
  -1.4629    0.1505E+000
  -1.4554    0.1530E+000
  -1.4479    0.1559E+000
  -1.4404    0.1589E+000
  -1.4329    0.1620E+000
  -1.4254    0.1650E+000
  -1.4179    0.1678E+000
  -1.4104    0.1703E+000
  -1.4029    0.1723E+000
  -1.3953    0.1739E+000
  -1.3878    0.1748E+000
  -1.3803    0.1752E+000
  -1.3728    0.1749E+000
  -1.3653    0.1741E+000
  -1.3578    0.1726E+000
  -1.3503    0.1705E+000
  -1.3428    0.1679E+000
  -1.3353    0.1649E+000
  -1.3278    0.1615E+000
  -1.3203    0.1578E+000
  -1.3128    0.1539E+000
  -1.3053    0.1498E+000
  -1.2978    0.1456E+000
  -1.2903    0.1415E+000
  -1.2828    0.1374E+000
  -1.2753    0.1335E+000
  -1.2678    0.1297E+000
  -1.2603    0.1262E+000
  -1.2528    0.1230E+000
  -1.2453    0.1202E+000
  -1.2378    0.1176E+000
  -1.2303    0.1155E+000
  -1.2228    0.1137E+000
  -1.2153    0.1123E+000
  -1.2078    0.1114E+000
  -1.2003    0.1108E+000
  -1.1928    0.1107E+000
  -1.1853    0.1110E+000
  -1.1778    0.1116E+000
  -1.1703    0.1126E+000
  -1.1628    0.1139E+000
  -1.1553    0.1156E+000
  -1.1478    0.1174E+000
  -1.1403    0.1195E+000
  -1.1328    0.1216E+000
  -1.1253    0.1237E+000
  -1.1178    0.1257E+000
  -1.1103    0.1275E+000
  -1.1028    0.1290E+000
  -1.0953    0.1301E+000
  -1.0878    0.1306E+000
  -1.0803    0.1305E+000
  -1.0728    0.1296E+000
  -1.0653    0.1280E+000
  -1.0578    0.1257E+000
  -1.0503    0.1225E+000
  -1.0428    0.1187E+000
  -1.0353    0.1142E+000
  -1.0278    0.1091E+000
  -1.0203    0.1035E+000
  -1.0128    0.9762E-001
  -1.0053    0.9156E-001
  -0.9977    0.8548E-001
  -0.9902    0.7950E-001
  -0.9827    0.7376E-001
  -0.9752    0.6837E-001
  -0.9677    0.6343E-001
  -0.9602    0.5899E-001
  -0.9527    0.5510E-001
  -0.9452    0.5176E-001
  -0.9377    0.4897E-001
  -0.9302    0.4668E-001
  -0.9227    0.4484E-001
  -0.9152    0.4339E-001
  -0.9077    0.4224E-001
  -0.9002    0.4133E-001
  -0.8927    0.4058E-001
  -0.8852    0.3992E-001
  -0.8777    0.3930E-001
  -0.8702    0.3867E-001
  -0.8627    0.3802E-001
  -0.8552    0.3734E-001
  -0.8477    0.3663E-001
  -0.8402    0.3590E-001
  -0.8327    0.3519E-001
  -0.8252    0.3453E-001
  -0.8177    0.3396E-001
  -0.8102    0.3352E-001
  -0.8027    0.3322E-001
  -0.7952    0.3311E-001
  -0.7877    0.3318E-001
  -0.7802    0.3345E-001
  -0.7727    0.3391E-001
  -0.7652    0.3454E-001
  -0.7577    0.3531E-001
  -0.7502    0.3619E-001
  -0.7427    0.3715E-001
  -0.7352    0.3815E-001
  -0.7277    0.3915E-001
  -0.7202    0.4012E-001
  -0.7127    0.4106E-001
  -0.7052    0.4193E-001
  -0.6977    0.4274E-001
  -0.6902    0.4350E-001
  -0.6827    0.4422E-001
  -0.6752    0.4493E-001
  -0.6677    0.4565E-001
  -0.6602    0.4640E-001
  -0.6527    0.4723E-001
  -0.6452    0.4815E-001
  -0.6377    0.4918E-001
  -0.6302    0.5034E-001
  -0.6227    0.5164E-001
  -0.6152    0.5305E-001
  -0.6077    0.5459E-001
  -0.6002    0.5621E-001
  -0.5926    0.5789E-001
  -0.5851    0.5959E-001
  -0.5776    0.6127E-001
  -0.5701    0.6288E-001
  -0.5626    0.6437E-001
  -0.5551    0.6570E-001
  -0.5476    0.6681E-001
  -0.5401    0.6766E-001
  -0.5326    0.6820E-001
  -0.5251    0.6839E-001
  -0.5176    0.6821E-001
  -0.5101    0.6764E-001
  -0.5026    0.6664E-001
  -0.4951    0.6524E-001
  -0.4876    0.6342E-001
  -0.4801    0.6121E-001
  -0.4726    0.5863E-001
  -0.4651    0.5572E-001
  -0.4576    0.5253E-001
  -0.4501    0.4911E-001
  -0.4426    0.4553E-001
  -0.4351    0.4183E-001
  -0.4276    0.3810E-001
  -0.4201    0.3438E-001
  -0.4126    0.3073E-001
  -0.4051    0.2721E-001
  -0.3976    0.2387E-001
  -0.3901    0.2073E-001
  -0.3826    0.1783E-001
  -0.3751    0.1518E-001
  -0.3676    0.1280E-001
  -0.3601    0.1068E-001
  -0.3526    0.8821E-002
  -0.3451    0.7211E-002
  -0.3376    0.5835E-002
  -0.3301    0.4672E-002
  -0.3226    0.3703E-002
  -0.3151    0.2904E-002
  -0.3076    0.2253E-002
  -0.3001    0.1730E-002
  -0.2926    0.1314E-002
  -0.2851    0.9881E-003
  -0.2776    0.7350E-003
  -0.2701    0.5409E-003
  -0.2626    0.3938E-003
  -0.2551    0.2837E-003
  -0.2476    0.2022E-003
  -0.2401    0.1426E-003
  -0.2326    0.9948E-004
  -0.2251    0.6869E-004
  -0.2176    0.4696E-004
  -0.2101    0.3183E-004
  -0.2026    0.2146E-004
  -0.1950    0.1451E-004
  -0.1875    0.1002E-004
  -0.1800    0.7343E-005
  -0.1725    0.6085E-005
  -0.1650    0.6056E-005
  -0.1575    0.7258E-005
  -0.1500    0.9887E-005
  -0.1425    0.1435E-004
  -0.1350    0.2133E-004
  -0.1275    0.3180E-004
  -0.1200    0.4718E-004
  -0.1125    0.6940E-004
  -0.1050    0.1011E-003
  -0.0975    0.1457E-003
  -0.0900    0.2079E-003
  -0.0825    0.2934E-003
  -0.0750    0.4097E-003
  -0.0675    0.5659E-003
  -0.0600    0.7735E-003
  -0.0525    0.1046E-002
  -0.0450    0.1400E-002
  -0.0375    0.1853E-002
  -0.0300    0.2428E-002
  -0.0225    0.3148E-002
  -0.0150    0.4039E-002
  -0.0075    0.5128E-002
   0.0000    0.6443E-002
   0.0075    0.8013E-002
   0.0150    0.9864E-002
   0.0225    0.1202E-001
   0.0300    0.1450E-001
   0.0375    0.1731E-001
   0.0450    0.2046E-001
   0.0525    0.2395E-001
   0.0600    0.2775E-001
   0.0675    0.3185E-001
   0.0750    0.3621E-001
   0.0825    0.4076E-001
   0.0900    0.4546E-001
   0.0975    0.5024E-001
   0.1050    0.5500E-001
   0.1125    0.5968E-001
   0.1200    0.6420E-001
   0.1275    0.6846E-001
   0.1350    0.7239E-001
   0.1425    0.7594E-001
   0.1500    0.7903E-001
   0.1575    0.8162E-001
   0.1650    0.8369E-001
   0.1725    0.8523E-001
   0.1800    0.8623E-001
   0.1875    0.8670E-001
   0.1950    0.8669E-001
   0.2026    0.8623E-001
   0.2101    0.8536E-001
   0.2176    0.8415E-001
   0.2251    0.8264E-001
   0.2326    0.8091E-001
   0.2401    0.7899E-001
   0.2476    0.7695E-001
   0.2551    0.7484E-001
   0.2626    0.7271E-001
   0.2701    0.7058E-001
   0.2776    0.6850E-001
   0.2851    0.6648E-001
   0.2926    0.6457E-001
   0.3001    0.6276E-001
   0.3076    0.6108E-001
   0.3151    0.5954E-001
   0.3226    0.5812E-001
   0.3301    0.5684E-001
   0.3376    0.5569E-001
   0.3451    0.5465E-001
   0.3526    0.5372E-001
   0.3601    0.5287E-001
   0.3676    0.5211E-001
   0.3751    0.5140E-001
   0.3826    0.5074E-001
   0.3901    0.5011E-001
   0.3976    0.4951E-001
   0.4051    0.4893E-001
   0.4126    0.4838E-001
   0.4201    0.4785E-001
   0.4276    0.4735E-001
   0.4351    0.4689E-001
   0.4426    0.4648E-001
   0.4501    0.4612E-001
   0.4576    0.4584E-001
   0.4651    0.4562E-001
   0.4726    0.4547E-001
   0.4801    0.4538E-001
   0.4876    0.4535E-001
   0.4951    0.4537E-001
   0.5026    0.4543E-001
   0.5101    0.4552E-001
   0.5176    0.4563E-001
   0.5251    0.4578E-001
   0.5326    0.4596E-001
   0.5401    0.4618E-001
   0.5476    0.4648E-001
   0.5551    0.4688E-001
   0.5626    0.4743E-001
   0.5701    0.4818E-001
   0.5776    0.4918E-001
   0.5851    0.5051E-001
   0.5926    0.5223E-001
   0.6002    0.5443E-001
   0.6077    0.5716E-001
   0.6152    0.6052E-001
   0.6227    0.6456E-001
   0.6302    0.6937E-001
   0.6377    0.7498E-001
   0.6452    0.8146E-001
   0.6527    0.8882E-001
   0.6602    0.9709E-001
   0.6677    0.1062E+000
   0.6752    0.1162E+000
   0.6827    0.1270E+000
   0.6902    0.1384E+000
   0.6977    0.1503E+000
   0.7052    0.1625E+000
   0.7127    0.1749E+000
   0.7202    0.1872E+000
   0.7277    0.1991E+000
   0.7352    0.2104E+000
   0.7427    0.2208E+000
   0.7502    0.2300E+000
   0.7577    0.2379E+000
   0.7652    0.2442E+000
   0.7727    0.2487E+000
   0.7802    0.2514E+000
   0.7877    0.2521E+000
   0.7952    0.2510E+000
   0.8027    0.2481E+000
   0.8102    0.2434E+000
   0.8177    0.2372E+000
   0.8252    0.2297E+000
   0.8327    0.2210E+000
   0.8402    0.2115E+000
   0.8477    0.2014E+000
   0.8552    0.1908E+000
   0.8627    0.1801E+000
   0.8702    0.1694E+000
   0.8777    0.1589E+000
   0.8852    0.1488E+000
   0.8927    0.1390E+000
   0.9002    0.1297E+000
   0.9077    0.1209E+000
   0.9152    0.1126E+000
   0.9227    0.1047E+000
   0.9302    0.9731E-001
   0.9377    0.9031E-001
   0.9452    0.8366E-001
   0.9527    0.7732E-001
   0.9602    0.7127E-001
   0.9677    0.6547E-001
   0.9752    0.5990E-001
   0.9827    0.5458E-001
   0.9902    0.4950E-001
   0.9977    0.4468E-001
   1.0053    0.4016E-001
   1.0128    0.3595E-001
   1.0203    0.3210E-001
   1.0278    0.2866E-001
   1.0353    0.2566E-001
   1.0428    0.2316E-001
   1.0503    0.2120E-001
   1.0578    0.1982E-001
   1.0653    0.1909E-001
   1.0728    0.1905E-001
   1.0803    0.1976E-001
   1.0878    0.2126E-001
   1.0953    0.2362E-001
   1.1028    0.2689E-001
   1.1103    0.3112E-001
   1.1178    0.3638E-001
   1.1253    0.4270E-001
   1.1328    0.5015E-001
   1.1403    0.5875E-001
   1.1478    0.6853E-001
   1.1553    0.7951E-001
   1.1628    0.9170E-001
   1.1703    0.1051E+000
   1.1778    0.1196E+000
   1.1853    0.1353E+000
   1.1928    0.1521E+000
   1.2003    0.1698E+000
   1.2078    0.1885E+000
   1.2153    0.2079E+000
   1.2228    0.2280E+000
   1.2303    0.2487E+000
   1.2378    0.2697E+000
   1.2453    0.2910E+000
   1.2528    0.3123E+000
   1.2603    0.3335E+000
   1.2678    0.3543E+000
   1.2753    0.3745E+000
   1.2828    0.3940E+000
   1.2903    0.4125E+000
   1.2978    0.4298E+000
   1.3053    0.4459E+000
   1.3128    0.4605E+000
   1.3203    0.4735E+000
   1.3278    0.4848E+000
   1.3353    0.4945E+000
   1.3428    0.5025E+000
   1.3503    0.5088E+000
   1.3578    0.5136E+000
   1.3653    0.5171E+000
   1.3728    0.5193E+000
   1.3803    0.5205E+000
   1.3878    0.5208E+000
   1.3953    0.5206E+000
   1.4029    0.5199E+000
   1.4104    0.5191E+000
   1.4179    0.5182E+000
   1.4254    0.5175E+000
   1.4329    0.5170E+000
   1.4404    0.5169E+000
   1.4479    0.5170E+000
   1.4554    0.5176E+000
   1.4629    0.5184E+000
   1.4704    0.5195E+000
   1.4779    0.5208E+000
   1.4854    0.5221E+000
   1.4929    0.5233E+000
   1.5004    0.5244E+000
   1.5079    0.5252E+000
   1.5154    0.5255E+000
   1.5229    0.5254E+000
   1.5304    0.5247E+000
   1.5379    0.5234E+000
   1.5454    0.5214E+000
   1.5529    0.5187E+000
   1.5604    0.5154E+000
   1.5679    0.5115E+000
   1.5754    0.5071E+000
   1.5829    0.5023E+000
   1.5904    0.4971E+000
   1.5979    0.4917E+000
   1.6054    0.4862E+000
   1.6129    0.4808E+000
   1.6204    0.4755E+000
   1.6279    0.4705E+000
   1.6354    0.4659E+000
   1.6429    0.4617E+000
   1.6504    0.4579E+000
   1.6579    0.4546E+000
   1.6654    0.4516E+000
   1.6729    0.4490E+000
   1.6804    0.4467E+000
   1.6879    0.4445E+000
   1.6954    0.4422E+000
   1.7029    0.4398E+000
   1.7104    0.4370E+000
   1.7179    0.4337E+000
   1.7254    0.4299E+000
   1.7329    0.4252E+000
   1.7404    0.4198E+000
   1.7479    0.4135E+000
   1.7554    0.4064E+000
   1.7629    0.3984E+000
   1.7704    0.3896E+000
   1.7779    0.3802E+000
   1.7854    0.3703E+000
   1.7929    0.3600E+000
   1.8005    0.3495E+000
   1.8080    0.3391E+000
   1.8155    0.3290E+000
   1.8230    0.3192E+000
   1.8305    0.3102E+000
   1.8380    0.3020E+000
   1.8455    0.2948E+000
   1.8530    0.2887E+000
   1.8605    0.2839E+000
   1.8680    0.2804E+000
   1.8755    0.2782E+000
   1.8830    0.2773E+000
   1.8905    0.2776E+000
   1.8980    0.2791E+000
   1.9055    0.2816E+000
   1.9130    0.2850E+000
   1.9205    0.2890E+000
   1.9280    0.2935E+000
   1.9355    0.2983E+000
   1.9430    0.3031E+000
   1.9505    0.3078E+000
   1.9580    0.3122E+000
   1.9655    0.3162E+000
   1.9730    0.3195E+000
   1.9805    0.3223E+000
   1.9880    0.3243E+000
   1.9955    0.3256E+000
   2.0030    0.3262E+000
   2.0105    0.3261E+000
   2.0180    0.3254E+000
   2.0255    0.3242E+000
   2.0330    0.3225E+000
   2.0405    0.3203E+000
   2.0480    0.3178E+000
   2.0555    0.3151E+000
   2.0630    0.3120E+000
   2.0705    0.3087E+000
   2.0780    0.3052E+000
   2.0855    0.3015E+000
   2.0930    0.2976E+000
   2.1005    0.2935E+000
   2.1080    0.2893E+000
   2.1155    0.2850E+000
   2.1230    0.2807E+000
   2.1305    0.2765E+000
   2.1380    0.2725E+000
   2.1455    0.2687E+000
   2.1530    0.2654E+000
   2.1605    0.2627E+000
   2.1680    0.2607E+000
   2.1755    0.2595E+000
   2.1830    0.2592E+000
   2.1905    0.2599E+000
   2.1980    0.2616E+000
   2.2056    0.2643E+000
   2.2131    0.2679E+000
   2.2206    0.2723E+000
   2.2281    0.2775E+000
   2.2356    0.2832E+000
   2.2431    0.2893E+000
   2.2506    0.2956E+000
   2.2581    0.3020E+000
   2.2656    0.3081E+000
   2.2731    0.3139E+000
   2.2806    0.3193E+000
   2.2881    0.3240E+000
   2.2956    0.3279E+000
   2.3031    0.3311E+000
   2.3106    0.3334E+000
   2.3181    0.3349E+000
   2.3256    0.3355E+000
   2.3331    0.3354E+000
   2.3406    0.3345E+000
   2.3481    0.3330E+000
   2.3556    0.3309E+000
   2.3631    0.3285E+000
   2.3706    0.3257E+000
   2.3781    0.3228E+000
   2.3856    0.3199E+000
   2.3931    0.3172E+000
   2.4006    0.3147E+000
   2.4081    0.3125E+000
   2.4156    0.3108E+000
   2.4231    0.3095E+000
   2.4306    0.3088E+000
   2.4381    0.3086E+000
   2.4456    0.3089E+000
   2.4531    0.3097E+000
   2.4606    0.3108E+000
   2.4681    0.3123E+000
   2.4756    0.3139E+000
   2.4831    0.3157E+000
   2.4906    0.3174E+000
   2.4981    0.3191E+000
   2.5056    0.3206E+000
   2.5131    0.3220E+000
   2.5206    0.3231E+000
   2.5281    0.3241E+000
   2.5356    0.3248E+000
   2.5431    0.3254E+000
   2.5506    0.3259E+000
   2.5581    0.3264E+000
   2.5656    0.3269E+000
   2.5731    0.3275E+000
   2.5806    0.3282E+000
   2.5881    0.3291E+000
   2.5956    0.3303E+000
   2.6032    0.3316E+000
   2.6107    0.3331E+000
   2.6182    0.3349E+000
   2.6257    0.3368E+000
   2.6332    0.3389E+000
   2.6407    0.3411E+000
   2.6482    0.3434E+000
   2.6557    0.3457E+000
   2.6632    0.3481E+000
   2.6707    0.3505E+000
   2.6782    0.3528E+000
   2.6857    0.3550E+000
   2.6932    0.3570E+000
   2.7007    0.3588E+000
   2.7082    0.3604E+000
   2.7157    0.3618E+000
   2.7232    0.3628E+000
   2.7307    0.3635E+000
   2.7382    0.3638E+000
   2.7457    0.3639E+000
   2.7532    0.3637E+000
   2.7607    0.3632E+000
   2.7682    0.3625E+000
   2.7757    0.3616E+000
   2.7832    0.3607E+000
   2.7907    0.3598E+000
   2.7982    0.3590E+000
   2.8057    0.3582E+000
   2.8132    0.3576E+000
   2.8207    0.3571E+000
   2.8282    0.3567E+000
   2.8357    0.3564E+000
   2.8432    0.3561E+000
   2.8507    0.3559E+000
   2.8582    0.3554E+000
   2.8657    0.3548E+000
   2.8732    0.3539E+000
   2.8807    0.3525E+000
   2.8882    0.3507E+000
   2.8957    0.3483E+000
   2.9032    0.3452E+000
   2.9107    0.3415E+000
   2.9182    0.3371E+000
   2.9257    0.3319E+000
   2.9332    0.3259E+000
   2.9407    0.3193E+000
   2.9482    0.3120E+000
   2.9557    0.3040E+000
   2.9632    0.2955E+000
   2.9707    0.2866E+000
   2.9782    0.2772E+000
   2.9857    0.2675E+000
   2.9932    0.2576E+000
   3.0008    0.2475E+000
   3.0083    0.2374E+000
   3.0158    0.2273E+000
   3.0233    0.2173E+000
   3.0308    0.2073E+000
   3.0383    0.1975E+000
   3.0458    0.1879E+000
   3.0533    0.1785E+000
   3.0608    0.1693E+000
   3.0683    0.1603E+000
   3.0758    0.1516E+000
   3.0833    0.1431E+000
   3.0908    0.1349E+000
   3.0983    0.1271E+000
   3.1058    0.1196E+000
   3.1133    0.1126E+000
   3.1208    0.1061E+000
   3.1283    0.1000E+000
   3.1358    0.9455E-001
   3.1433    0.8971E-001
   3.1508    0.8551E-001
   3.1583    0.8199E-001
   3.1658    0.7917E-001
   3.1733    0.7703E-001
   3.1808    0.7557E-001
   3.1883    0.7478E-001
   3.1958    0.7460E-001
   3.2033    0.7501E-001
   3.2108    0.7596E-001
   3.2183    0.7741E-001
   3.2258    0.7933E-001
   3.2333    0.8168E-001
   3.2408    0.8444E-001
   3.2483    0.8761E-001
   3.2558    0.9119E-001
   3.2633    0.9520E-001
   3.2708    0.9966E-001
   3.2783    0.1046E+000
   3.2858    0.1101E+000
   3.2933    0.1161E+000
   3.3008    0.1226E+000
   3.3083    0.1298E+000
   3.3158    0.1374E+000
   3.3233    0.1456E+000
   3.3308    0.1542E+000
   3.3383    0.1632E+000
   3.3458    0.1725E+000
   3.3533    0.1819E+000
   3.3608    0.1912E+000
   3.3683    0.2004E+000
   3.3758    0.2093E+000
   3.3833    0.2177E+000
   3.3908    0.2255E+000
   3.3983    0.2326E+000
   3.4059    0.2389E+000
   3.4134    0.2443E+000
   3.4209    0.2489E+000
   3.4284    0.2526E+000
   3.4359    0.2554E+000
   3.4434    0.2574E+000
   3.4509    0.2586E+000
   3.4584    0.2593E+000
   3.4659    0.2593E+000
   3.4734    0.2589E+000
   3.4809    0.2580E+000
   3.4884    0.2569E+000
   3.4959    0.2555E+000
   3.5034    0.2538E+000
   3.5109    0.2520E+000
   3.5184    0.2500E+000
   3.5259    0.2478E+000
   3.5334    0.2454E+000
   3.5409    0.2429E+000
   3.5484    0.2402E+000
   3.5559    0.2373E+000
   3.5634    0.2343E+000
   3.5709    0.2311E+000
   3.5784    0.2278E+000
   3.5859    0.2245E+000
   3.5934    0.2212E+000
   3.6009    0.2180E+000
   3.6084    0.2150E+000
   3.6159    0.2123E+000
   3.6234    0.2099E+000
   3.6309    0.2079E+000
   3.6384    0.2064E+000
   3.6459    0.2055E+000
   3.6534    0.2053E+000
   3.6609    0.2056E+000
   3.6684    0.2066E+000
   3.6759    0.2083E+000
   3.6834    0.2107E+000
   3.6909    0.2138E+000
   3.6984    0.2175E+000
   3.7059    0.2218E+000
   3.7134    0.2266E+000
   3.7209    0.2320E+000
   3.7284    0.2378E+000
   3.7359    0.2439E+000
   3.7434    0.2502E+000
   3.7509    0.2567E+000
   3.7584    0.2631E+000
   3.7659    0.2694E+000
   3.7734    0.2755E+000
   3.7809    0.2811E+000
   3.7884    0.2862E+000
   3.7959    0.2907E+000
   3.8035    0.2944E+000
   3.8110    0.2972E+000
   3.8185    0.2993E+000
   3.8260    0.3004E+000
   3.8335    0.3007E+000
   3.8410    0.3002E+000
   3.8485    0.2990E+000
   3.8560    0.2973E+000
   3.8635    0.2951E+000
   3.8710    0.2927E+000
   3.8785    0.2900E+000
   3.8860    0.2874E+000
   3.8935    0.2849E+000
   3.9010    0.2826E+000
   3.9085    0.2806E+000
   3.9160    0.2790E+000
   3.9235    0.2778E+000
   3.9310    0.2769E+000
   3.9385    0.2764E+000
   3.9460    0.2762E+000
   3.9535    0.2763E+000
   3.9610    0.2765E+000
   3.9685    0.2769E+000
   3.9760    0.2773E+000
   3.9835    0.2777E+000
   3.9910    0.2780E+000
   3.9985    0.2781E+000
   4.0060    0.2779E+000
   4.0135    0.2774E+000
   4.0210    0.2766E+000
   4.0285    0.2753E+000
   4.0360    0.2736E+000
   4.0435    0.2715E+000
   4.0510    0.2688E+000
   4.0585    0.2656E+000
   4.0660    0.2619E+000
   4.0735    0.2577E+000
   4.0810    0.2531E+000
   4.0885    0.2481E+000
   4.0960    0.2427E+000
   4.1035    0.2370E+000
   4.1110    0.2312E+000
   4.1185    0.2252E+000
   4.1260    0.2191E+000
   4.1335    0.2132E+000
   4.1410    0.2074E+000
   4.1485    0.2019E+000
   4.1560    0.1968E+000
   4.1635    0.1922E+000
   4.1710    0.1882E+000
   4.1785    0.1848E+000
   4.1860    0.1821E+000
   4.1935    0.1803E+000
   4.2011    0.1792E+000
   4.2086    0.1789E+000
   4.2161    0.1794E+000
   4.2236    0.1807E+000
   4.2311    0.1826E+000
   4.2386    0.1852E+000
   4.2461    0.1883E+000
   4.2536    0.1919E+000
   4.2611    0.1957E+000
   4.2686    0.1996E+000
   4.2761    0.2036E+000
   4.2836    0.2075E+000
   4.2911    0.2112E+000
   4.2986    0.2146E+000
   4.3061    0.2177E+000
   4.3136    0.2203E+000
   4.3211    0.2225E+000
   4.3286    0.2242E+000
   4.3361    0.2254E+000
   4.3436    0.2261E+000
   4.3511    0.2263E+000
   4.3586    0.2262E+000
   4.3661    0.2257E+000
   4.3736    0.2248E+000
   4.3811    0.2237E+000
   4.3886    0.2223E+000
   4.3961    0.2207E+000
   4.4036    0.2189E+000
   4.4111    0.2169E+000
   4.4186    0.2147E+000
   4.4261    0.2123E+000
   4.4336    0.2097E+000
   4.4411    0.2069E+000
   4.4486    0.2039E+000
   4.4561    0.2006E+000
   4.4636    0.1971E+000
   4.4711    0.1933E+000
   4.4786    0.1892E+000
   4.4861    0.1849E+000
   4.4936    0.1804E+000
   4.5011    0.1757E+000
   4.5086    0.1708E+000
   4.5161    0.1659E+000
   4.5236    0.1608E+000
   4.5311    0.1558E+000
   4.5386    0.1509E+000
   4.5461    0.1460E+000
   4.5536    0.1413E+000
   4.5611    0.1368E+000
   4.5686    0.1326E+000
   4.5761    0.1285E+000
   4.5836    0.1248E+000
   4.5911    0.1212E+000
   4.5986    0.1179E+000
   4.6062    0.1149E+000
   4.6137    0.1120E+000
   4.6212    0.1094E+000
   4.6287    0.1069E+000
   4.6362    0.1046E+000
   4.6437    0.1024E+000
   4.6512    0.1004E+000
   4.6587    0.9853E-001
   4.6662    0.9683E-001
   4.6737    0.9530E-001
   4.6812    0.9394E-001
   4.6887    0.9275E-001
   4.6962    0.9174E-001
   4.7037    0.9090E-001
   4.7112    0.9021E-001
   4.7187    0.8964E-001
   4.7262    0.8918E-001
   4.7337    0.8878E-001
   4.7412    0.8841E-001
   4.7487    0.8804E-001
   4.7562    0.8765E-001
   4.7637    0.8721E-001
   4.7712    0.8673E-001
   4.7787    0.8619E-001
   4.7862    0.8563E-001
   4.7937    0.8506E-001
   4.8012    0.8453E-001
   4.8087    0.8406E-001
   4.8162    0.8372E-001
   4.8237    0.8354E-001
   4.8312    0.8357E-001
   4.8387    0.8384E-001
   4.8462    0.8439E-001
   4.8537    0.8523E-001
   4.8612    0.8638E-001
   4.8687    0.8786E-001
   4.8762    0.8967E-001
   4.8837    0.9184E-001
   4.8912    0.9438E-001
   4.8987    0.9732E-001
   4.9062    0.1007E+000
   4.9137    0.1046E+000
   4.9212    0.1090E+000
   4.9287    0.1140E+000
   4.9362    0.1196E+000
   4.9437    0.1260E+000
   4.9512    0.1332E+000
   4.9587    0.1412E+000
   4.9662    0.1500E+000
   4.9737    0.1596E+000
   4.9812    0.1699E+000
   4.9887    0.1809E+000
   4.9962    0.1924E+000
   5.0038    0.2042E+000
   5.0113    0.2163E+000
   5.0188    0.2284E+000
   5.0263    0.2402E+000
   5.0338    0.2516E+000
   5.0413    0.2622E+000
   5.0488    0.2720E+000
   5.0563    0.2807E+000
   5.0638    0.2882E+000
   5.0713    0.2943E+000
   5.0788    0.2988E+000
   5.0863    0.3019E+000
   5.0938    0.3034E+000
   5.1013    0.3033E+000
   5.1088    0.3018E+000
   5.1163    0.2989E+000
   5.1238    0.2948E+000
   5.1313    0.2896E+000
   5.1388    0.2835E+000
   5.1463    0.2767E+000
   5.1538    0.2693E+000
   5.1613    0.2617E+000
   5.1688    0.2539E+000
   5.1763    0.2463E+000
   5.1838    0.2389E+000
   5.1913    0.2318E+000
   5.1988    0.2254E+000
   5.2063    0.2196E+000
   5.2138    0.2145E+000
   5.2213    0.2101E+000
   5.2288    0.2066E+000
   5.2363    0.2038E+000
   5.2438    0.2017E+000
   5.2513    0.2002E+000
   5.2588    0.1994E+000
   5.2663    0.1990E+000
   5.2738    0.1989E+000
   5.2813    0.1992E+000
   5.2888    0.1997E+000
   5.2963    0.2002E+000
   5.3038    0.2009E+000
   5.3113    0.2015E+000
   5.3188    0.2022E+000
   5.3263    0.2029E+000
   5.3338    0.2036E+000
   5.3413    0.2044E+000
   5.3488    0.2053E+000
   5.3563    0.2064E+000
   5.3638    0.2077E+000
   5.3713    0.2093E+000
   5.3788    0.2113E+000
   5.3863    0.2135E+000
   5.3938    0.2160E+000
   5.4014    0.2189E+000
   5.4089    0.2220E+000
   5.4164    0.2254E+000
   5.4239    0.2289E+000
   5.4314    0.2326E+000
   5.4389    0.2363E+000
   5.4464    0.2401E+000
   5.4539    0.2438E+000
   5.4614    0.2475E+000
   5.4689    0.2510E+000
   5.4764    0.2543E+000
   5.4839    0.2575E+000
   5.4914    0.2605E+000
   5.4989    0.2633E+000
   5.5064    0.2659E+000
   5.5139    0.2682E+000
   5.5214    0.2702E+000
   5.5289    0.2719E+000
   5.5364    0.2733E+000
   5.5439    0.2743E+000
   5.5514    0.2749E+000
   5.5589    0.2750E+000
   5.5664    0.2746E+000
   5.5739    0.2736E+000
   5.5814    0.2720E+000
   5.5889    0.2697E+000
   5.5964    0.2668E+000
   5.6039    0.2632E+000
   5.6114    0.2589E+000
   5.6189    0.2539E+000
   5.6264    0.2484E+000
   5.6339    0.2423E+000
   5.6414    0.2357E+000
   5.6489    0.2288E+000
   5.6564    0.2217E+000
   5.6639    0.2144E+000
   5.6714    0.2070E+000
   5.6789    0.1998E+000
   5.6864    0.1927E+000
   5.6939    0.1859E+000
   5.7014    0.1794E+000
   5.7089    0.1732E+000
   5.7164    0.1673E+000
   5.7239    0.1618E+000
   5.7314    0.1566E+000
   5.7389    0.1517E+000
   5.7464    0.1470E+000
   5.7539    0.1424E+000
   5.7614    0.1380E+000
   5.7689    0.1336E+000
   5.7764    0.1292E+000
   5.7839    0.1248E+000
   5.7914    0.1203E+000
   5.7989    0.1157E+000
   5.8065    0.1112E+000
   5.8140    0.1066E+000
   5.8215    0.1020E+000
   5.8290    0.9742E-001
   5.8365    0.9296E-001
   5.8440    0.8864E-001
   5.8515    0.8452E-001
   5.8590    0.8063E-001
   5.8665    0.7702E-001
   5.8740    0.7371E-001
   5.8815    0.7075E-001
   5.8890    0.6814E-001
   5.8965    0.6591E-001
   5.9040    0.6406E-001
   5.9115    0.6258E-001
   5.9190    0.6149E-001
   5.9265    0.6075E-001
   5.9340    0.6036E-001
   5.9415    0.6029E-001
   5.9490    0.6052E-001
   5.9565    0.6102E-001
   5.9640    0.6175E-001
   5.9715    0.6267E-001
   5.9790    0.6374E-001
   5.9865    0.6492E-001
   5.9940    0.6616E-001
   6.0015    0.6741E-001
   6.0090    0.6861E-001
   6.0165    0.6973E-001
   6.0240    0.7071E-001
   6.0315    0.7151E-001
   6.0390    0.7210E-001
   6.0465    0.7246E-001
   6.0540    0.7256E-001
   6.0615    0.7240E-001
   6.0690    0.7199E-001
   6.0765    0.7137E-001
   6.0840    0.7057E-001
   6.0915    0.6965E-001
   6.0990    0.6869E-001
   6.1065    0.6777E-001
   6.1140    0.6698E-001
   6.1215    0.6644E-001
   6.1290    0.6625E-001
   6.1365    0.6650E-001
   6.1440    0.6731E-001
   6.1515    0.6874E-001
   6.1590    0.7087E-001
   6.1665    0.7375E-001
   6.1740    0.7738E-001
   6.1815    0.8177E-001
   6.1890    0.8686E-001
   6.1965    0.9260E-001
   6.2041    0.9888E-001
   6.2116    0.1056E+000
   6.2191    0.1126E+000
   6.2266    0.1197E+000
   6.2341    0.1268E+000
   6.2416    0.1337E+000
   6.2491    0.1402E+000
   6.2566    0.1462E+000
   6.2641    0.1516E+000
   6.2716    0.1563E+000
   6.2791    0.1602E+000
   6.2866    0.1632E+000
   6.2941    0.1653E+000
   6.3016    0.1666E+000
   6.3091    0.1670E+000
   6.3166    0.1667E+000
   6.3241    0.1656E+000
   6.3316    0.1640E+000
   6.3391    0.1618E+000
   6.3466    0.1592E+000
   6.3541    0.1563E+000
   6.3616    0.1531E+000
   6.3691    0.1498E+000
   6.3766    0.1464E+000
   6.3841    0.1430E+000
   6.3916    0.1397E+000
   6.3991    0.1365E+000
   6.4066    0.1334E+000
   6.4141    0.1305E+000
   6.4216    0.1278E+000
   6.4291    0.1253E+000
   6.4366    0.1230E+000
   6.4441    0.1209E+000
   6.4516    0.1191E+000
   6.4591    0.1175E+000
   6.4666    0.1162E+000
   6.4741    0.1151E+000
   6.4816    0.1142E+000
   6.4891    0.1135E+000
   6.4966    0.1130E+000
   6.5041    0.1128E+000
   6.5116    0.1129E+000
   6.5191    0.1132E+000
   6.5266    0.1138E+000
   6.5341    0.1148E+000
   6.5416    0.1162E+000
   6.5491    0.1180E+000
   6.5566    0.1205E+000
   6.5641    0.1235E+000
   6.5716    0.1271E+000
   6.5791    0.1315E+000
   6.5866    0.1367E+000
   6.5941    0.1427E+000
   6.6017    0.1496E+000
   6.6092    0.1573E+000
   6.6167    0.1659E+000
   6.6242    0.1752E+000
   6.6317    0.1854E+000
   6.6392    0.1961E+000
   6.6467    0.2074E+000
   6.6542    0.2192E+000
   6.6617    0.2312E+000
   6.6692    0.2433E+000
   6.6767    0.2553E+000
   6.6842    0.2671E+000
   6.6917    0.2784E+000
   6.6992    0.2890E+000
   6.7067    0.2988E+000
   6.7142    0.3075E+000
   6.7217    0.3150E+000
   6.7292    0.3213E+000
   6.7367    0.3260E+000
   6.7442    0.3293E+000
   6.7517    0.3310E+000
   6.7592    0.3311E+000
   6.7667    0.3296E+000
   6.7742    0.3266E+000
   6.7817    0.3221E+000
   6.7892    0.3162E+000
   6.7967    0.3091E+000
   6.8042    0.3009E+000
   6.8117    0.2918E+000
   6.8192    0.2819E+000
   6.8267    0.2714E+000
   6.8342    0.2604E+000
   6.8417    0.2493E+000
   6.8492    0.2381E+000
   6.8567    0.2270E+000
   6.8642    0.2162E+000
   6.8717    0.2058E+000
   6.8792    0.1959E+000
   6.8867    0.1866E+000
   6.8942    0.1780E+000
   6.9017    0.1701E+000
   6.9092    0.1630E+000
   6.9167    0.1567E+000
   6.9242    0.1511E+000
   6.9317    0.1463E+000
   6.9392    0.1422E+000
   6.9467    0.1387E+000
   6.9542    0.1360E+000
   6.9617    0.1338E+000
   6.9692    0.1322E+000
   6.9767    0.1311E+000
   6.9842    0.1306E+000
   6.9917    0.1304E+000
   6.9992    0.1307E+000
   7.0068    0.1314E+000
   7.0143    0.1325E+000
   7.0218    0.1339E+000
   7.0293    0.1357E+000
   7.0368    0.1377E+000
   7.0443    0.1400E+000
   7.0518    0.1425E+000
   7.0593    0.1453E+000
   7.0668    0.1482E+000
   7.0743    0.1512E+000
   7.0818    0.1542E+000
   7.0893    0.1573E+000
   7.0968    0.1602E+000
   7.1043    0.1630E+000
   7.1118    0.1655E+000
   7.1193    0.1677E+000
   7.1268    0.1694E+000
   7.1343    0.1707E+000
   7.1418    0.1713E+000
   7.1493    0.1714E+000
   7.1568    0.1707E+000
   7.1643    0.1694E+000
   7.1718    0.1675E+000
   7.1793    0.1648E+000
   7.1868    0.1616E+000
   7.1943    0.1579E+000
   7.2018    0.1538E+000
   7.2093    0.1494E+000
   7.2168    0.1449E+000
   7.2243    0.1402E+000
   7.2318    0.1356E+000
   7.2393    0.1311E+000
   7.2468    0.1268E+000
   7.2543    0.1229E+000
   7.2618    0.1192E+000
   7.2693    0.1160E+000
   7.2768    0.1130E+000
   7.2843    0.1105E+000
   7.2918    0.1082E+000
   7.2993    0.1062E+000
   7.3068    0.1044E+000
   7.3143    0.1028E+000
   7.3218    0.1013E+000
   7.3293    0.9980E-001
   7.3368    0.9833E-001
   7.3443    0.9682E-001
   7.3518    0.9527E-001
   7.3593    0.9364E-001
   7.3668    0.9194E-001
   7.3743    0.9017E-001
   7.3818    0.8833E-001
   7.3893    0.8645E-001
   7.3968    0.8454E-001
   7.4044    0.8264E-001
   7.4119    0.8075E-001
   7.4194    0.7890E-001
   7.4269    0.7712E-001
   7.4344    0.7541E-001
   7.4419    0.7380E-001
   7.4494    0.7230E-001
   7.4569    0.7092E-001
   7.4644    0.6965E-001
   7.4719    0.6852E-001
   7.4794    0.6750E-001
   7.4869    0.6661E-001
   7.4944    0.6584E-001
   7.5019    0.6519E-001
   7.5094    0.6465E-001
   7.5169    0.6421E-001
   7.5244    0.6389E-001
   7.5319    0.6366E-001
   7.5394    0.6353E-001
   7.5469    0.6351E-001
   7.5544    0.6358E-001
   7.5619    0.6376E-001
   7.5694    0.6405E-001
   7.5769    0.6444E-001
   7.5844    0.6494E-001
   7.5919    0.6556E-001
   7.5994    0.6629E-001
   7.6069    0.6714E-001
   7.6144    0.6811E-001
   7.6219    0.6918E-001
   7.6294    0.7036E-001
   7.6369    0.7163E-001
   7.6444    0.7298E-001
   7.6519    0.7439E-001
   7.6594    0.7584E-001
   7.6669    0.7731E-001
   7.6744    0.7875E-001
   7.6819    0.8013E-001
   7.6894    0.8142E-001
   7.6969    0.8255E-001
   7.7044    0.8349E-001
   7.7119    0.8419E-001
   7.7194    0.8459E-001
   7.7269    0.8465E-001
   7.7344    0.8434E-001
   7.7419    0.8361E-001
   7.7494    0.8245E-001
   7.7569    0.8085E-001
   7.7644    0.7883E-001
   7.7719    0.7639E-001
   7.7794    0.7359E-001
   7.7869    0.7048E-001
   7.7944    0.6714E-001
   7.8020    0.6365E-001
   7.8095    0.6012E-001
   7.8170    0.5665E-001
   7.8245    0.5337E-001
   7.8320    0.5041E-001
   7.8395    0.4788E-001
   7.8470    0.4590E-001
   7.8545    0.4460E-001
   7.8620    0.4408E-001
   7.8695    0.4442E-001
   7.8770    0.4569E-001
   7.8845    0.4796E-001
   7.8920    0.5125E-001
   7.8995    0.5556E-001
   7.9070    0.6087E-001
   7.9145    0.6714E-001
   7.9220    0.7427E-001
   7.9295    0.8218E-001
   7.9370    0.9073E-001
   7.9445    0.9978E-001
   7.9520    0.1092E+000
   7.9595    0.1187E+000
   7.9670    0.1282E+000
   7.9745    0.1375E+000
   7.9820    0.1464E+000
   7.9895    0.1548E+000
   7.9970    0.1624E+000
   8.0045    0.1693E+000
   8.0120    0.1753E+000
   8.0195    0.1803E+000
   8.0270    0.1844E+000
   8.0345    0.1875E+000
   8.0420    0.1897E+000
   8.0495    0.1911E+000
   8.0570    0.1916E+000
   8.0645    0.1916E+000
   8.0720    0.1910E+000
   8.0795    0.1900E+000
   8.0870    0.1889E+000
   8.0945    0.1876E+000
   8.1020    0.1863E+000
   8.1095    0.1853E+000
   8.1170    0.1844E+000
   8.1245    0.1840E+000
   8.1320    0.1840E+000
   8.1395    0.1845E+000
   8.1470    0.1856E+000
   8.1545    0.1871E+000
   8.1620    0.1892E+000
   8.1695    0.1919E+000
   8.1770    0.1949E+000
   8.1845    0.1984E+000
   8.1920    0.2022E+000
   8.1995    0.2063E+000
   8.2071    0.2105E+000
   8.2146    0.2148E+000
   8.2221    0.2192E+000
   8.2296    0.2235E+000
   8.2371    0.2277E+000
   8.2446    0.2317E+000
   8.2521    0.2356E+000
   8.2596    0.2393E+000
   8.2671    0.2427E+000
   8.2746    0.2459E+000
   8.2821    0.2489E+000
   8.2896    0.2517E+000
   8.2971    0.2542E+000
   8.3046    0.2565E+000
   8.3121    0.2586E+000
   8.3196    0.2604E+000
   8.3271    0.2619E+000
   8.3346    0.2631E+000
   8.3421    0.2639E+000
   8.3496    0.2642E+000
   8.3571    0.2641E+000
   8.3646    0.2633E+000
   8.3721    0.2618E+000
   8.3796    0.2595E+000
   8.3871    0.2565E+000
   8.3946    0.2525E+000
   8.4021    0.2477E+000
   8.4096    0.2421E+000
   8.4171    0.2355E+000
   8.4246    0.2282E+000
   8.4321    0.2202E+000
   8.4396    0.2116E+000
   8.4471    0.2025E+000
   8.4546    0.1931E+000
   8.4621    0.1836E+000
   8.4696    0.1740E+000
   8.4771    0.1647E+000
   8.4846    0.1557E+000
   8.4921    0.1471E+000
   8.4996    0.1391E+000
   8.5071    0.1318E+000
   8.5146    0.1252E+000
   8.5221    0.1195E+000
   8.5296    0.1145E+000
   8.5371    0.1103E+000
   8.5446    0.1068E+000
   8.5521    0.1041E+000
   8.5596    0.1019E+000
   8.5671    0.1002E+000
   8.5746    0.9895E-001
   8.5821    0.9796E-001
   8.5896    0.9713E-001
   8.5971    0.9635E-001
   8.6047    0.9550E-001
   8.6122    0.9448E-001
   8.6197    0.9319E-001
   8.6272    0.9157E-001
   8.6347    0.8956E-001
   8.6422    0.8711E-001
   8.6497    0.8421E-001
   8.6572    0.8087E-001
   8.6647    0.7711E-001
   8.6722    0.7297E-001
   8.6797    0.6850E-001
   8.6872    0.6377E-001
   8.6947    0.5887E-001
   8.7022    0.5386E-001
   8.7097    0.4884E-001
   8.7172    0.4388E-001
   8.7247    0.3907E-001
   8.7322    0.3445E-001
   8.7397    0.3010E-001
   8.7472    0.2605E-001
   8.7547    0.2235E-001
   8.7622    0.1901E-001
   8.7697    0.1606E-001
   8.7772    0.1348E-001
   8.7847    0.1128E-001
   8.7922    0.9461E-002
   8.7997    0.8001E-002
   8.8072    0.6892E-002
   8.8147    0.6124E-002
   8.8222    0.5688E-002
   8.8297    0.5581E-002
   8.8372    0.5800E-002
   8.8447    0.6351E-002
   8.8522    0.7241E-002
   8.8597    0.8481E-002
   8.8672    0.1009E-001
   8.8747    0.1207E-001
   8.8822    0.1445E-001
   8.8897    0.1723E-001
   8.8972    0.2043E-001
   8.9047    0.2403E-001
   8.9122    0.2803E-001
   8.9197    0.3242E-001
   8.9272    0.3715E-001
   8.9347    0.4219E-001
   8.9422    0.4747E-001
   8.9497    0.5294E-001
   8.9572    0.5851E-001
   8.9647    0.6411E-001
   8.9722    0.6963E-001
   8.9797    0.7500E-001
   8.9872    0.8012E-001
   8.9947    0.8491E-001
   9.0023    0.8930E-001
   9.0098    0.9321E-001
   9.0173    0.9661E-001
   9.0248    0.9945E-001
   9.0323    0.1017E+000
   9.0398    0.1034E+000
   9.0473    0.1046E+000
   9.0548    0.1052E+000
   9.0623    0.1053E+000
   9.0698    0.1050E+000
   9.0773    0.1043E+000
   9.0848    0.1033E+000
   9.0923    0.1020E+000
   9.0998    0.1005E+000
   9.1073    0.9897E-001
   9.1148    0.9733E-001
   9.1223    0.9568E-001
   9.1298    0.9406E-001
   9.1373    0.9253E-001
   9.1448    0.9111E-001
   9.1523    0.8983E-001
   9.1598    0.8872E-001
   9.1673    0.8780E-001
   9.1748    0.8708E-001
   9.1823    0.8656E-001
   9.1898    0.8626E-001
   9.1973    0.8617E-001
   9.2048    0.8629E-001
   9.2123    0.8662E-001
   9.2198    0.8715E-001
   9.2273    0.8785E-001
   9.2348    0.8872E-001
   9.2423    0.8972E-001
   9.2498    0.9083E-001
   9.2573    0.9201E-001
   9.2648    0.9322E-001
   9.2723    0.9440E-001
   9.2798    0.9551E-001
   9.2873    0.9650E-001
   9.2948    0.9731E-001
   9.3023    0.9788E-001
   9.3098    0.9818E-001
   9.3173    0.9815E-001
   9.3248    0.9777E-001
   9.3323    0.9703E-001
   9.3398    0.9591E-001
   9.3473    0.9445E-001
   9.3548    0.9268E-001
   9.3623    0.9065E-001
   9.3698    0.8846E-001
   9.3773    0.8620E-001
   9.3848    0.8400E-001
   9.3923    0.8197E-001
   9.3998    0.8027E-001
   9.4074    0.7904E-001
   9.4149    0.7842E-001
   9.4224    0.7854E-001
   9.4299    0.7952E-001
   9.4374    0.8146E-001
   9.4449    0.8441E-001
   9.4524    0.8842E-001
   9.4599    0.9347E-001
   9.4674    0.9953E-001
   9.4749    0.1065E+000
   9.4824    0.1143E+000
   9.4899    0.1228E+000
   9.4974    0.1318E+000
   9.5049    0.1410E+000
   9.5124    0.1504E+000
   9.5199    0.1597E+000
   9.5274    0.1686E+000
   9.5349    0.1770E+000
   9.5424    0.1847E+000
   9.5499    0.1916E+000
   9.5574    0.1976E+000
   9.5649    0.2025E+000
   9.5724    0.2064E+000
   9.5799    0.2092E+000
   9.5874    0.2110E+000
   9.5949    0.2117E+000
   9.6024    0.2116E+000
   9.6099    0.2106E+000
   9.6174    0.2090E+000
   9.6249    0.2068E+000
   9.6324    0.2042E+000
   9.6399    0.2012E+000
   9.6474    0.1981E+000
   9.6549    0.1949E+000
   9.6624    0.1917E+000
   9.6699    0.1887E+000
   9.6774    0.1858E+000
   9.6849    0.1833E+000
   9.6924    0.1810E+000
   9.6999    0.1791E+000
   9.7074    0.1776E+000
   9.7149    0.1765E+000
   9.7224    0.1758E+000
   9.7299    0.1756E+000
   9.7374    0.1758E+000
   9.7449    0.1765E+000
   9.7524    0.1775E+000
   9.7599    0.1790E+000
   9.7674    0.1808E+000
   9.7749    0.1828E+000
   9.7824    0.1851E+000
   9.7899    0.1876E+000
   9.7974    0.1900E+000
   9.8050    0.1925E+000
   9.8125    0.1947E+000
   9.8200    0.1966E+000
   9.8275    0.1982E+000
   9.8350    0.1991E+000
   9.8425    0.1994E+000
   9.8500    0.1988E+000
   9.8575    0.1974E+000
   9.8650    0.1949E+000
   9.8725    0.1915E+000
   9.8800    0.1869E+000
   9.8875    0.1812E+000
   9.8950    0.1746E+000
   9.9025    0.1669E+000
   9.9100    0.1584E+000
   9.9175    0.1491E+000
   9.9250    0.1392E+000
   9.9325    0.1289E+000
   9.9400    0.1184E+000
   9.9475    0.1077E+000
   9.9550    0.9716E-001
   9.9625    0.8683E-001
   9.9700    0.7687E-001
   9.9775    0.6742E-001
   9.9850    0.5856E-001
   9.9925    0.5038E-001
  10.0000    0.4292E-001
