 # E (eV)   ldos(E)
 -20.0000    0.2631E+000
 -19.9925    0.2721E+000
 -19.9850    0.2808E+000
 -19.9775    0.2890E+000
 -19.9700    0.2966E+000
 -19.9625    0.3035E+000
 -19.9550    0.3095E+000
 -19.9475    0.3146E+000
 -19.9400    0.3188E+000
 -19.9325    0.3219E+000
 -19.9250    0.3239E+000
 -19.9175    0.3249E+000
 -19.9100    0.3248E+000
 -19.9025    0.3237E+000
 -19.8950    0.3217E+000
 -19.8875    0.3188E+000
 -19.8800    0.3152E+000
 -19.8725    0.3110E+000
 -19.8650    0.3064E+000
 -19.8575    0.3015E+000
 -19.8500    0.2964E+000
 -19.8425    0.2913E+000
 -19.8350    0.2862E+000
 -19.8275    0.2814E+000
 -19.8200    0.2769E+000
 -19.8125    0.2729E+000
 -19.8050    0.2692E+000
 -19.7974    0.2661E+000
 -19.7899    0.2636E+000
 -19.7824    0.2616E+000
 -19.7749    0.2602E+000
 -19.7674    0.2594E+000
 -19.7599    0.2592E+000
 -19.7524    0.2596E+000
 -19.7449    0.2605E+000
 -19.7374    0.2620E+000
 -19.7299    0.2641E+000
 -19.7224    0.2667E+000
 -19.7149    0.2699E+000
 -19.7074    0.2735E+000
 -19.6999    0.2776E+000
 -19.6924    0.2821E+000
 -19.6849    0.2869E+000
 -19.6774    0.2919E+000
 -19.6699    0.2970E+000
 -19.6624    0.3021E+000
 -19.6549    0.3069E+000
 -19.6474    0.3115E+000
 -19.6399    0.3155E+000
 -19.6324    0.3190E+000
 -19.6249    0.3218E+000
 -19.6174    0.3237E+000
 -19.6099    0.3248E+000
 -19.6024    0.3250E+000
 -19.5949    0.3244E+000
 -19.5874    0.3231E+000
 -19.5799    0.3211E+000
 -19.5724    0.3185E+000
 -19.5649    0.3156E+000
 -19.5574    0.3126E+000
 -19.5499    0.3096E+000
 -19.5424    0.3068E+000
 -19.5349    0.3045E+000
 -19.5274    0.3027E+000
 -19.5199    0.3018E+000
 -19.5124    0.3017E+000
 -19.5049    0.3026E+000
 -19.4974    0.3044E+000
 -19.4899    0.3073E+000
 -19.4824    0.3110E+000
 -19.4749    0.3156E+000
 -19.4674    0.3209E+000
 -19.4599    0.3267E+000
 -19.4524    0.3327E+000
 -19.4449    0.3389E+000
 -19.4374    0.3449E+000
 -19.4299    0.3504E+000
 -19.4224    0.3553E+000
 -19.4149    0.3593E+000
 -19.4074    0.3621E+000
 -19.3998    0.3637E+000
 -19.3923    0.3638E+000
 -19.3848    0.3624E+000
 -19.3773    0.3593E+000
 -19.3698    0.3546E+000
 -19.3623    0.3484E+000
 -19.3548    0.3407E+000
 -19.3473    0.3317E+000
 -19.3398    0.3215E+000
 -19.3323    0.3104E+000
 -19.3248    0.2986E+000
 -19.3173    0.2865E+000
 -19.3098    0.2743E+000
 -19.3023    0.2622E+000
 -19.2948    0.2505E+000
 -19.2873    0.2396E+000
 -19.2798    0.2295E+000
 -19.2723    0.2206E+000
 -19.2648    0.2129E+000
 -19.2573    0.2065E+000
 -19.2498    0.2016E+000
 -19.2423    0.1981E+000
 -19.2348    0.1960E+000
 -19.2273    0.1952E+000
 -19.2198    0.1958E+000
 -19.2123    0.1976E+000
 -19.2048    0.2005E+000
 -19.1973    0.2043E+000
 -19.1898    0.2090E+000
 -19.1823    0.2145E+000
 -19.1748    0.2205E+000
 -19.1673    0.2272E+000
 -19.1598    0.2342E+000
 -19.1523    0.2417E+000
 -19.1448    0.2496E+000
 -19.1373    0.2577E+000
 -19.1298    0.2661E+000
 -19.1223    0.2747E+000
 -19.1148    0.2834E+000
 -19.1073    0.2923E+000
 -19.0998    0.3013E+000
 -19.0923    0.3103E+000
 -19.0848    0.3192E+000
 -19.0773    0.3279E+000
 -19.0698    0.3363E+000
 -19.0623    0.3443E+000
 -19.0548    0.3519E+000
 -19.0473    0.3588E+000
 -19.0398    0.3651E+000
 -19.0323    0.3707E+000
 -19.0248    0.3755E+000
 -19.0173    0.3795E+000
 -19.0098    0.3827E+000
 -19.0023    0.3852E+000
 -18.9947    0.3869E+000
 -18.9872    0.3879E+000
 -18.9797    0.3884E+000
 -18.9722    0.3884E+000
 -18.9647    0.3880E+000
 -18.9572    0.3873E+000
 -18.9497    0.3863E+000
 -18.9422    0.3852E+000
 -18.9347    0.3840E+000
 -18.9272    0.3827E+000
 -18.9197    0.3814E+000
 -18.9122    0.3801E+000
 -18.9047    0.3788E+000
 -18.8972    0.3774E+000
 -18.8897    0.3761E+000
 -18.8822    0.3747E+000
 -18.8747    0.3731E+000
 -18.8672    0.3714E+000
 -18.8597    0.3695E+000
 -18.8522    0.3673E+000
 -18.8447    0.3647E+000
 -18.8372    0.3616E+000
 -18.8297    0.3580E+000
 -18.8222    0.3538E+000
 -18.8147    0.3490E+000
 -18.8072    0.3434E+000
 -18.7997    0.3370E+000
 -18.7922    0.3299E+000
 -18.7847    0.3219E+000
 -18.7772    0.3132E+000
 -18.7697    0.3038E+000
 -18.7622    0.2937E+000
 -18.7547    0.2831E+000
 -18.7472    0.2721E+000
 -18.7397    0.2608E+000
 -18.7322    0.2493E+000
 -18.7247    0.2379E+000
 -18.7172    0.2267E+000
 -18.7097    0.2159E+000
 -18.7022    0.2055E+000
 -18.6947    0.1958E+000
 -18.6872    0.1869E+000
 -18.6797    0.1789E+000
 -18.6722    0.1719E+000
 -18.6647    0.1660E+000
 -18.6572    0.1612E+000
 -18.6497    0.1576E+000
 -18.6422    0.1553E+000
 -18.6347    0.1542E+000
 -18.6272    0.1543E+000
 -18.6197    0.1557E+000
 -18.6122    0.1584E+000
 -18.6047    0.1622E+000
 -18.5971    0.1673E+000
 -18.5896    0.1734E+000
 -18.5821    0.1806E+000
 -18.5746    0.1886E+000
 -18.5671    0.1975E+000
 -18.5596    0.2070E+000
 -18.5521    0.2171E+000
 -18.5446    0.2274E+000
 -18.5371    0.2379E+000
 -18.5296    0.2483E+000
 -18.5221    0.2585E+000
 -18.5146    0.2683E+000
 -18.5071    0.2774E+000
 -18.4996    0.2858E+000
 -18.4921    0.2933E+000
 -18.4846    0.2999E+000
 -18.4771    0.3055E+000
 -18.4696    0.3101E+000
 -18.4621    0.3138E+000
 -18.4546    0.3167E+000
 -18.4471    0.3190E+000
 -18.4396    0.3207E+000
 -18.4321    0.3223E+000
 -18.4246    0.3238E+000
 -18.4171    0.3256E+000
 -18.4096    0.3278E+000
 -18.4021    0.3308E+000
 -18.3946    0.3348E+000
 -18.3871    0.3398E+000
 -18.3796    0.3460E+000
 -18.3721    0.3536E+000
 -18.3646    0.3624E+000
 -18.3571    0.3724E+000
 -18.3496    0.3836E+000
 -18.3421    0.3957E+000
 -18.3346    0.4084E+000
 -18.3271    0.4215E+000
 -18.3196    0.4346E+000
 -18.3121    0.4474E+000
 -18.3046    0.4595E+000
 -18.2971    0.4704E+000
 -18.2896    0.4800E+000
 -18.2821    0.4878E+000
 -18.2746    0.4936E+000
 -18.2671    0.4972E+000
 -18.2596    0.4985E+000
 -18.2521    0.4974E+000
 -18.2446    0.4940E+000
 -18.2371    0.4883E+000
 -18.2296    0.4806E+000
 -18.2221    0.4710E+000
 -18.2146    0.4599E+000
 -18.2071    0.4475E+000
 -18.1995    0.4343E+000
 -18.1920    0.4205E+000
 -18.1845    0.4065E+000
 -18.1770    0.3926E+000
 -18.1695    0.3791E+000
 -18.1620    0.3661E+000
 -18.1545    0.3539E+000
 -18.1470    0.3425E+000
 -18.1395    0.3320E+000
 -18.1320    0.3223E+000
 -18.1245    0.3135E+000
 -18.1170    0.3053E+000
 -18.1095    0.2977E+000
 -18.1020    0.2904E+000
 -18.0945    0.2834E+000
 -18.0870    0.2764E+000
 -18.0795    0.2692E+000
 -18.0720    0.2618E+000
 -18.0645    0.2541E+000
 -18.0570    0.2460E+000
 -18.0495    0.2375E+000
 -18.0420    0.2287E+000
 -18.0345    0.2196E+000
 -18.0270    0.2103E+000
 -18.0195    0.2011E+000
 -18.0120    0.1920E+000
 -18.0045    0.1832E+000
 -17.9970    0.1750E+000
 -17.9895    0.1674E+000
 -17.9820    0.1605E+000
 -17.9745    0.1546E+000
 -17.9670    0.1496E+000
 -17.9595    0.1455E+000
 -17.9520    0.1425E+000
 -17.9445    0.1403E+000
 -17.9370    0.1391E+000
 -17.9295    0.1386E+000
 -17.9220    0.1388E+000
 -17.9145    0.1395E+000
 -17.9070    0.1408E+000
 -17.8995    0.1425E+000
 -17.8920    0.1444E+000
 -17.8845    0.1467E+000
 -17.8770    0.1492E+000
 -17.8695    0.1520E+000
 -17.8620    0.1551E+000
 -17.8545    0.1585E+000
 -17.8470    0.1624E+000
 -17.8395    0.1667E+000
 -17.8320    0.1716E+000
 -17.8245    0.1772E+000
 -17.8170    0.1835E+000
 -17.8095    0.1906E+000
 -17.8020    0.1986E+000
 -17.7944    0.2075E+000
 -17.7869    0.2172E+000
 -17.7794    0.2279E+000
 -17.7719    0.2393E+000
 -17.7644    0.2515E+000
 -17.7569    0.2644E+000
 -17.7494    0.2778E+000
 -17.7419    0.2916E+000
 -17.7344    0.3057E+000
 -17.7269    0.3199E+000
 -17.7194    0.3341E+000
 -17.7119    0.3481E+000
 -17.7044    0.3617E+000
 -17.6969    0.3748E+000
 -17.6894    0.3872E+000
 -17.6819    0.3987E+000
 -17.6744    0.4094E+000
 -17.6669    0.4190E+000
 -17.6594    0.4275E+000
 -17.6519    0.4348E+000
 -17.6444    0.4409E+000
 -17.6369    0.4457E+000
 -17.6294    0.4494E+000
 -17.6219    0.4519E+000
 -17.6144    0.4534E+000
 -17.6069    0.4538E+000
 -17.5994    0.4533E+000
 -17.5919    0.4520E+000
 -17.5844    0.4501E+000
 -17.5769    0.4475E+000
 -17.5694    0.4445E+000
 -17.5619    0.4412E+000
 -17.5544    0.4377E+000
 -17.5469    0.4340E+000
 -17.5394    0.4303E+000
 -17.5319    0.4266E+000
 -17.5244    0.4230E+000
 -17.5169    0.4196E+000
 -17.5094    0.4164E+000
 -17.5019    0.4134E+000
 -17.4944    0.4107E+000
 -17.4869    0.4083E+000
 -17.4794    0.4062E+000
 -17.4719    0.4044E+000
 -17.4644    0.4029E+000
 -17.4569    0.4016E+000
 -17.4494    0.4005E+000
 -17.4419    0.3996E+000
 -17.4344    0.3987E+000
 -17.4269    0.3979E+000
 -17.4194    0.3970E+000
 -17.4119    0.3960E+000
 -17.4044    0.3947E+000
 -17.3968    0.3931E+000
 -17.3893    0.3911E+000
 -17.3818    0.3886E+000
 -17.3743    0.3857E+000
 -17.3668    0.3822E+000
 -17.3593    0.3781E+000
 -17.3518    0.3736E+000
 -17.3443    0.3685E+000
 -17.3368    0.3630E+000
 -17.3293    0.3572E+000
 -17.3218    0.3510E+000
 -17.3143    0.3447E+000
 -17.3068    0.3384E+000
 -17.2993    0.3322E+000
 -17.2918    0.3261E+000
 -17.2843    0.3203E+000
 -17.2768    0.3149E+000
 -17.2693    0.3099E+000
 -17.2618    0.3054E+000
 -17.2543    0.3015E+000
 -17.2468    0.2980E+000
 -17.2393    0.2950E+000
 -17.2318    0.2924E+000
 -17.2243    0.2901E+000
 -17.2168    0.2879E+000
 -17.2093    0.2858E+000
 -17.2018    0.2835E+000
 -17.1943    0.2809E+000
 -17.1868    0.2778E+000
 -17.1793    0.2741E+000
 -17.1718    0.2696E+000
 -17.1643    0.2641E+000
 -17.1568    0.2576E+000
 -17.1493    0.2501E+000
 -17.1418    0.2414E+000
 -17.1343    0.2317E+000
 -17.1268    0.2209E+000
 -17.1193    0.2093E+000
 -17.1118    0.1968E+000
 -17.1043    0.1838E+000
 -17.0968    0.1705E+000
 -17.0893    0.1570E+000
 -17.0818    0.1435E+000
 -17.0743    0.1304E+000
 -17.0668    0.1179E+000
 -17.0593    0.1061E+000
 -17.0518    0.9533E-001
 -17.0443    0.8571E-001
 -17.0368    0.7739E-001
 -17.0293    0.7051E-001
 -17.0218    0.6517E-001
 -17.0143    0.6143E-001
 -17.0068    0.5934E-001
 -16.9992    0.5894E-001
 -16.9917    0.6021E-001
 -16.9842    0.6315E-001
 -16.9767    0.6773E-001
 -16.9692    0.7391E-001
 -16.9617    0.8163E-001
 -16.9542    0.9082E-001
 -16.9467    0.1014E+000
 -16.9392    0.1133E+000
 -16.9317    0.1264E+000
 -16.9242    0.1407E+000
 -16.9167    0.1559E+000
 -16.9092    0.1720E+000
 -16.9017    0.1889E+000
 -16.8942    0.2063E+000
 -16.8867    0.2242E+000
 -16.8792    0.2424E+000
 -16.8717    0.2606E+000
 -16.8642    0.2788E+000
 -16.8567    0.2968E+000
 -16.8492    0.3144E+000
 -16.8417    0.3314E+000
 -16.8342    0.3477E+000
 -16.8267    0.3632E+000
 -16.8192    0.3778E+000
 -16.8117    0.3915E+000
 -16.8042    0.4042E+000
 -16.7967    0.4159E+000
 -16.7892    0.4267E+000
 -16.7817    0.4367E+000
 -16.7742    0.4459E+000
 -16.7667    0.4546E+000
 -16.7592    0.4628E+000
 -16.7517    0.4708E+000
 -16.7442    0.4785E+000
 -16.7367    0.4863E+000
 -16.7292    0.4942E+000
 -16.7217    0.5022E+000
 -16.7142    0.5104E+000
 -16.7067    0.5188E+000
 -16.6992    0.5272E+000
 -16.6917    0.5357E+000
 -16.6842    0.5440E+000
 -16.6767    0.5518E+000
 -16.6692    0.5591E+000
 -16.6617    0.5654E+000
 -16.6542    0.5706E+000
 -16.6467    0.5744E+000
 -16.6392    0.5765E+000
 -16.6317    0.5768E+000
 -16.6242    0.5751E+000
 -16.6167    0.5713E+000
 -16.6092    0.5654E+000
 -16.6017    0.5575E+000
 -16.5941    0.5476E+000
 -16.5866    0.5360E+000
 -16.5791    0.5228E+000
 -16.5716    0.5084E+000
 -16.5641    0.4931E+000
 -16.5566    0.4772E+000
 -16.5491    0.4610E+000
 -16.5416    0.4449E+000
 -16.5341    0.4290E+000
 -16.5266    0.4137E+000
 -16.5191    0.3992E+000
 -16.5116    0.3854E+000
 -16.5041    0.3726E+000
 -16.4966    0.3606E+000
 -16.4891    0.3495E+000
 -16.4816    0.3391E+000
 -16.4741    0.3293E+000
 -16.4666    0.3200E+000
 -16.4591    0.3110E+000
 -16.4516    0.3021E+000
 -16.4441    0.2933E+000
 -16.4366    0.2844E+000
 -16.4291    0.2753E+000
 -16.4216    0.2662E+000
 -16.4141    0.2570E+000
 -16.4066    0.2478E+000
 -16.3991    0.2388E+000
 -16.3916    0.2302E+000
 -16.3841    0.2221E+000
 -16.3766    0.2148E+000
 -16.3691    0.2086E+000
 -16.3616    0.2036E+000
 -16.3541    0.1999E+000
 -16.3466    0.1978E+000
 -16.3391    0.1973E+000
 -16.3316    0.1985E+000
 -16.3241    0.2012E+000
 -16.3166    0.2055E+000
 -16.3091    0.2110E+000
 -16.3016    0.2178E+000
 -16.2941    0.2254E+000
 -16.2866    0.2337E+000
 -16.2791    0.2424E+000
 -16.2716    0.2512E+000
 -16.2641    0.2598E+000
 -16.2566    0.2680E+000
 -16.2491    0.2757E+000
 -16.2416    0.2826E+000
 -16.2341    0.2887E+000
 -16.2266    0.2940E+000
 -16.2191    0.2984E+000
 -16.2116    0.3019E+000
 -16.2041    0.3046E+000
 -16.1965    0.3066E+000
 -16.1890    0.3079E+000
 -16.1815    0.3087E+000
 -16.1740    0.3091E+000
 -16.1665    0.3090E+000
 -16.1590    0.3085E+000
 -16.1515    0.3078E+000
 -16.1440    0.3066E+000
 -16.1365    0.3050E+000
 -16.1290    0.3029E+000
 -16.1215    0.3002E+000
 -16.1140    0.2968E+000
 -16.1065    0.2926E+000
 -16.0990    0.2875E+000
 -16.0915    0.2814E+000
 -16.0840    0.2742E+000
 -16.0765    0.2659E+000
 -16.0690    0.2564E+000
 -16.0615    0.2458E+000
 -16.0540    0.2342E+000
 -16.0465    0.2216E+000
 -16.0390    0.2083E+000
 -16.0315    0.1944E+000
 -16.0240    0.1802E+000
 -16.0165    0.1657E+000
 -16.0090    0.1514E+000
 -16.0015    0.1374E+000
 -15.9940    0.1241E+000
 -15.9865    0.1115E+000
 -15.9790    0.9991E-001
 -15.9715    0.8955E-001
 -15.9640    0.8055E-001
 -15.9565    0.7306E-001
 -15.9490    0.6718E-001
 -15.9415    0.6300E-001
 -15.9340    0.6059E-001
 -15.9265    0.5999E-001
 -15.9190    0.6124E-001
 -15.9115    0.6434E-001
 -15.9040    0.6930E-001
 -15.8965    0.7612E-001
 -15.8890    0.8480E-001
 -15.8815    0.9531E-001
 -15.8740    0.1076E+000
 -15.8665    0.1217E+000
 -15.8590    0.1376E+000
 -15.8515    0.1551E+000
 -15.8440    0.1743E+000
 -15.8365    0.1949E+000
 -15.8290    0.2170E+000
 -15.8215    0.2404E+000
 -15.8140    0.2649E+000
 -15.8065    0.2904E+000
 -15.7989    0.3166E+000
 -15.7914    0.3433E+000
 -15.7839    0.3702E+000
 -15.7764    0.3970E+000
 -15.7689    0.4234E+000
 -15.7614    0.4492E+000
 -15.7539    0.4740E+000
 -15.7464    0.4976E+000
 -15.7389    0.5197E+000
 -15.7314    0.5400E+000
 -15.7239    0.5585E+000
 -15.7164    0.5748E+000
 -15.7089    0.5891E+000
 -15.7014    0.6012E+000
 -15.6939    0.6111E+000
 -15.6864    0.6189E+000
 -15.6789    0.6247E+000
 -15.6714    0.6286E+000
 -15.6639    0.6308E+000
 -15.6564    0.6314E+000
 -15.6489    0.6307E+000
 -15.6414    0.6287E+000
 -15.6339    0.6257E+000
 -15.6264    0.6218E+000
 -15.6189    0.6171E+000
 -15.6114    0.6117E+000
 -15.6039    0.6057E+000
 -15.5964    0.5992E+000
 -15.5889    0.5922E+000
 -15.5814    0.5848E+000
 -15.5739    0.5769E+000
 -15.5664    0.5686E+000
 -15.5589    0.5600E+000
 -15.5514    0.5509E+000
 -15.5439    0.5416E+000
 -15.5364    0.5319E+000
 -15.5289    0.5220E+000
 -15.5214    0.5118E+000
 -15.5139    0.5014E+000
 -15.5064    0.4910E+000
 -15.4989    0.4804E+000
 -15.4914    0.4699E+000
 -15.4839    0.4595E+000
 -15.4764    0.4492E+000
 -15.4689    0.4392E+000
 -15.4614    0.4294E+000
 -15.4539    0.4199E+000
 -15.4464    0.4109E+000
 -15.4389    0.4022E+000
 -15.4314    0.3941E+000
 -15.4239    0.3865E+000
 -15.4164    0.3793E+000
 -15.4089    0.3727E+000
 -15.4014    0.3666E+000
 -15.3938    0.3610E+000
 -15.3863    0.3558E+000
 -15.3788    0.3509E+000
 -15.3713    0.3462E+000
 -15.3638    0.3416E+000
 -15.3563    0.3370E+000
 -15.3488    0.3321E+000
 -15.3413    0.3269E+000
 -15.3338    0.3212E+000
 -15.3263    0.3148E+000
 -15.3188    0.3075E+000
 -15.3113    0.2994E+000
 -15.3038    0.2902E+000
 -15.2963    0.2800E+000
 -15.2888    0.2688E+000
 -15.2813    0.2567E+000
 -15.2738    0.2437E+000
 -15.2663    0.2300E+000
 -15.2588    0.2159E+000
 -15.2513    0.2015E+000
 -15.2438    0.1872E+000
 -15.2363    0.1732E+000
 -15.2288    0.1598E+000
 -15.2213    0.1473E+000
 -15.2138    0.1361E+000
 -15.2063    0.1263E+000
 -15.1988    0.1183E+000
 -15.1913    0.1122E+000
 -15.1838    0.1082E+000
 -15.1763    0.1064E+000
 -15.1688    0.1069E+000
 -15.1613    0.1096E+000
 -15.1538    0.1146E+000
 -15.1463    0.1218E+000
 -15.1388    0.1309E+000
 -15.1313    0.1418E+000
 -15.1238    0.1543E+000
 -15.1163    0.1681E+000
 -15.1088    0.1828E+000
 -15.1013    0.1983E+000
 -15.0938    0.2142E+000
 -15.0863    0.2301E+000
 -15.0788    0.2458E+000
 -15.0713    0.2610E+000
 -15.0638    0.2755E+000
 -15.0563    0.2890E+000
 -15.0488    0.3014E+000
 -15.0413    0.3126E+000
 -15.0338    0.3224E+000
 -15.0263    0.3310E+000
 -15.0188    0.3381E+000
 -15.0113    0.3439E+000
 -15.0038    0.3484E+000
 -14.9962    0.3517E+000
 -14.9887    0.3537E+000
 -14.9812    0.3545E+000
 -14.9737    0.3542E+000
 -14.9662    0.3526E+000
 -14.9587    0.3500E+000
 -14.9512    0.3462E+000
 -14.9437    0.3411E+000
 -14.9362    0.3349E+000
 -14.9287    0.3275E+000
 -14.9212    0.3190E+000
 -14.9137    0.3092E+000
 -14.9062    0.2985E+000
 -14.8987    0.2868E+000
 -14.8912    0.2743E+000
 -14.8837    0.2613E+000
 -14.8762    0.2479E+000
 -14.8687    0.2346E+000
 -14.8612    0.2216E+000
 -14.8537    0.2093E+000
 -14.8462    0.1980E+000
 -14.8387    0.1882E+000
 -14.8312    0.1800E+000
 -14.8237    0.1740E+000
 -14.8162    0.1702E+000
 -14.8087    0.1690E+000
 -14.8012    0.1706E+000
 -14.7937    0.1749E+000
 -14.7862    0.1820E+000
 -14.7787    0.1919E+000
 -14.7712    0.2044E+000
 -14.7637    0.2193E+000
 -14.7562    0.2364E+000
 -14.7487    0.2553E+000
 -14.7412    0.2759E+000
 -14.7337    0.2976E+000
 -14.7262    0.3201E+000
 -14.7187    0.3431E+000
 -14.7112    0.3663E+000
 -14.7037    0.3894E+000
 -14.6962    0.4121E+000
 -14.6887    0.4343E+000
 -14.6812    0.4558E+000
 -14.6737    0.4766E+000
 -14.6662    0.4966E+000
 -14.6587    0.5158E+000
 -14.6512    0.5343E+000
 -14.6437    0.5522E+000
 -14.6362    0.5695E+000
 -14.6287    0.5863E+000
 -14.6212    0.6027E+000
 -14.6137    0.6188E+000
 -14.6062    0.6344E+000
 -14.5986    0.6496E+000
 -14.5911    0.6643E+000
 -14.5836    0.6784E+000
 -14.5761    0.6918E+000
 -14.5686    0.7043E+000
 -14.5611    0.7158E+000
 -14.5536    0.7261E+000
 -14.5461    0.7351E+000
 -14.5386    0.7426E+000
 -14.5311    0.7486E+000
 -14.5236    0.7529E+000
 -14.5161    0.7554E+000
 -14.5086    0.7562E+000
 -14.5011    0.7550E+000
 -14.4936    0.7520E+000
 -14.4861    0.7470E+000
 -14.4786    0.7401E+000
 -14.4711    0.7311E+000
 -14.4636    0.7201E+000
 -14.4561    0.7070E+000
 -14.4486    0.6917E+000
 -14.4411    0.6742E+000
 -14.4336    0.6545E+000
 -14.4261    0.6326E+000
 -14.4186    0.6086E+000
 -14.4111    0.5825E+000
 -14.4036    0.5545E+000
 -14.3961    0.5248E+000
 -14.3886    0.4936E+000
 -14.3811    0.4612E+000
 -14.3736    0.4280E+000
 -14.3661    0.3943E+000
 -14.3586    0.3606E+000
 -14.3511    0.3272E+000
 -14.3436    0.2945E+000
 -14.3361    0.2628E+000
 -14.3286    0.2326E+000
 -14.3211    0.2040E+000
 -14.3136    0.1774E+000
 -14.3061    0.1528E+000
 -14.2986    0.1304E+000
 -14.2911    0.1103E+000
 -14.2836    0.9237E-001
 -14.2761    0.7661E-001
 -14.2686    0.6292E-001
 -14.2611    0.5117E-001
 -14.2536    0.4120E-001
 -14.2461    0.3284E-001
 -14.2386    0.2591E-001
 -14.2311    0.2023E-001
 -14.2236    0.1564E-001
 -14.2161    0.1197E-001
 -14.2086    0.9061E-002
 -14.2011    0.6789E-002
 -14.1935    0.5034E-002
 -14.1860    0.3694E-002
 -14.1785    0.2682E-002
 -14.1710    0.1926E-002
 -14.1635    0.1369E-002
 -14.1560    0.9631E-003
 -14.1485    0.6703E-003
 -14.1410    0.4619E-003
 -14.1335    0.3152E-003
 -14.1260    0.2135E-003
 -14.1185    0.1442E-003
 -14.1110    0.9807E-004
 -14.1035    0.6873E-004
 -14.0960    0.5182E-004
 -14.0885    0.4467E-004
 -14.0810    0.4601E-004
 -14.0735    0.5579E-004
 -14.0660    0.7514E-004
 -14.0585    0.1064E-003
 -14.0510    0.1534E-003
 -14.0435    0.2215E-003
 -14.0360    0.3181E-003
 -14.0285    0.4530E-003
 -14.0210    0.6392E-003
 -14.0135    0.8929E-003
 -14.0060    0.1235E-002
 -13.9985    0.1691E-002
 -13.9910    0.2292E-002
 -13.9835    0.3076E-002
 -13.9760    0.4087E-002
 -13.9685    0.5377E-002
 -13.9610    0.7005E-002
 -13.9535    0.9039E-002
 -13.9460    0.1155E-001
 -13.9385    0.1462E-001
 -13.9310    0.1834E-001
 -13.9235    0.2278E-001
 -13.9160    0.2804E-001
 -13.9085    0.3419E-001
 -13.9010    0.4133E-001
 -13.8935    0.4951E-001
 -13.8860    0.5879E-001
 -13.8785    0.6919E-001
 -13.8710    0.8075E-001
 -13.8635    0.9343E-001
 -13.8560    0.1072E+000
 -13.8485    0.1220E+000
 -13.8410    0.1377E+000
 -13.8335    0.1541E+000
 -13.8260    0.1712E+000
 -13.8185    0.1887E+000
 -13.8110    0.2064E+000
 -13.8035    0.2241E+000
 -13.7959    0.2415E+000
 -13.7884    0.2585E+000
 -13.7809    0.2747E+000
 -13.7734    0.2899E+000
 -13.7659    0.3040E+000
 -13.7584    0.3169E+000
 -13.7509    0.3283E+000
 -13.7434    0.3382E+000
 -13.7359    0.3467E+000
 -13.7284    0.3536E+000
 -13.7209    0.3592E+000
 -13.7134    0.3635E+000
 -13.7059    0.3667E+000
 -13.6984    0.3691E+000
 -13.6909    0.3708E+000
 -13.6834    0.3722E+000
 -13.6759    0.3735E+000
 -13.6684    0.3749E+000
 -13.6609    0.3768E+000
 -13.6534    0.3794E+000
 -13.6459    0.3827E+000
 -13.6384    0.3870E+000
 -13.6309    0.3923E+000
 -13.6234    0.3986E+000
 -13.6159    0.4059E+000
 -13.6084    0.4139E+000
 -13.6009    0.4226E+000
 -13.5934    0.4317E+000
 -13.5859    0.4408E+000
 -13.5784    0.4498E+000
 -13.5709    0.4582E+000
 -13.5634    0.4657E+000
 -13.5559    0.4722E+000
 -13.5484    0.4772E+000
 -13.5409    0.4806E+000
 -13.5334    0.4822E+000
 -13.5259    0.4820E+000
 -13.5184    0.4800E+000
 -13.5109    0.4762E+000
 -13.5034    0.4708E+000
 -13.4959    0.4640E+000
 -13.4884    0.4561E+000
 -13.4809    0.4474E+000
 -13.4734    0.4383E+000
 -13.4659    0.4291E+000
 -13.4584    0.4201E+000
 -13.4509    0.4117E+000
 -13.4434    0.4041E+000
 -13.4359    0.3977E+000
 -13.4284    0.3925E+000
 -13.4209    0.3887E+000
 -13.4134    0.3862E+000
 -13.4059    0.3852E+000
 -13.3983    0.3854E+000
 -13.3908    0.3867E+000
 -13.3833    0.3889E+000
 -13.3758    0.3917E+000
 -13.3683    0.3950E+000
 -13.3608    0.3984E+000
 -13.3533    0.4018E+000
 -13.3458    0.4048E+000
 -13.3383    0.4072E+000
 -13.3308    0.4088E+000
 -13.3233    0.4094E+000
 -13.3158    0.4088E+000
 -13.3083    0.4070E+000
 -13.3008    0.4038E+000
 -13.2933    0.3991E+000
 -13.2858    0.3928E+000
 -13.2783    0.3849E+000
 -13.2708    0.3754E+000
 -13.2633    0.3643E+000
 -13.2558    0.3517E+000
 -13.2483    0.3375E+000
 -13.2408    0.3220E+000
 -13.2333    0.3054E+000
 -13.2258    0.2876E+000
 -13.2183    0.2690E+000
 -13.2108    0.2499E+000
 -13.2033    0.2303E+000
 -13.1958    0.2107E+000
 -13.1883    0.1912E+000
 -13.1808    0.1721E+000
 -13.1733    0.1537E+000
 -13.1658    0.1361E+000
 -13.1583    0.1196E+000
 -13.1508    0.1044E+000
 -13.1433    0.9050E-001
 -13.1358    0.7811E-001
 -13.1283    0.6729E-001
 -13.1208    0.5812E-001
 -13.1133    0.5067E-001
 -13.1058    0.4498E-001
 -13.0983    0.4111E-001
 -13.0908    0.3912E-001
 -13.0833    0.3909E-001
 -13.0758    0.4109E-001
 -13.0683    0.4525E-001
 -13.0608    0.5167E-001
 -13.0533    0.6049E-001
 -13.0458    0.7184E-001
 -13.0383    0.8585E-001
 -13.0308    0.1026E+000
 -13.0233    0.1222E+000
 -13.0158    0.1447E+000
 -13.0083    0.1701E+000
 -13.0008    0.1982E+000
 -12.9932    0.2289E+000
 -12.9857    0.2618E+000
 -12.9782    0.2967E+000
 -12.9707    0.3331E+000
 -12.9632    0.3704E+000
 -12.9557    0.4081E+000
 -12.9482    0.4455E+000
 -12.9407    0.4818E+000
 -12.9332    0.5165E+000
 -12.9257    0.5489E+000
 -12.9182    0.5784E+000
 -12.9107    0.6043E+000
 -12.9032    0.6263E+000
 -12.8957    0.6441E+000
 -12.8882    0.6574E+000
 -12.8807    0.6662E+000
 -12.8732    0.6704E+000
 -12.8657    0.6702E+000
 -12.8582    0.6659E+000
 -12.8507    0.6578E+000
 -12.8432    0.6463E+000
 -12.8357    0.6319E+000
 -12.8282    0.6149E+000
 -12.8207    0.5959E+000
 -12.8132    0.5754E+000
 -12.8057    0.5538E+000
 -12.7982    0.5315E+000
 -12.7907    0.5088E+000
 -12.7832    0.4862E+000
 -12.7757    0.4639E+000
 -12.7682    0.4422E+000
 -12.7607    0.4213E+000
 -12.7532    0.4014E+000
 -12.7457    0.3827E+000
 -12.7382    0.3653E+000
 -12.7307    0.3493E+000
 -12.7232    0.3348E+000
 -12.7157    0.3220E+000
 -12.7082    0.3110E+000
 -12.7007    0.3017E+000
 -12.6932    0.2945E+000
 -12.6857    0.2892E+000
 -12.6782    0.2860E+000
 -12.6707    0.2851E+000
 -12.6632    0.2863E+000
 -12.6557    0.2898E+000
 -12.6482    0.2957E+000
 -12.6407    0.3038E+000
 -12.6332    0.3143E+000
 -12.6257    0.3270E+000
 -12.6182    0.3418E+000
 -12.6107    0.3586E+000
 -12.6032    0.3772E+000
 -12.5956    0.3974E+000
 -12.5881    0.4189E+000
 -12.5806    0.4413E+000
 -12.5731    0.4643E+000
 -12.5656    0.4874E+000
 -12.5581    0.5102E+000
 -12.5506    0.5323E+000
 -12.5431    0.5531E+000
 -12.5356    0.5723E+000
 -12.5281    0.5895E+000
 -12.5206    0.6043E+000
 -12.5131    0.6164E+000
 -12.5056    0.6255E+000
 -12.4981    0.6315E+000
 -12.4906    0.6342E+000
 -12.4831    0.6337E+000
 -12.4756    0.6300E+000
 -12.4681    0.6231E+000
 -12.4606    0.6133E+000
 -12.4531    0.6006E+000
 -12.4456    0.5854E+000
 -12.4381    0.5678E+000
 -12.4306    0.5482E+000
 -12.4231    0.5267E+000
 -12.4156    0.5036E+000
 -12.4081    0.4793E+000
 -12.4006    0.4538E+000
 -12.3931    0.4276E+000
 -12.3856    0.4007E+000
 -12.3781    0.3735E+000
 -12.3706    0.3462E+000
 -12.3631    0.3190E+000
 -12.3556    0.2922E+000
 -12.3481    0.2658E+000
 -12.3406    0.2403E+000
 -12.3331    0.2156E+000
 -12.3256    0.1921E+000
 -12.3181    0.1699E+000
 -12.3106    0.1490E+000
 -12.3031    0.1297E+000
 -12.2956    0.1119E+000
 -12.2881    0.9579E-001
 -12.2806    0.8127E-001
 -12.2731    0.6836E-001
 -12.2656    0.5701E-001
 -12.2581    0.4716E-001
 -12.2506    0.3872E-001
 -12.2431    0.3159E-001
 -12.2356    0.2569E-001
 -12.2281    0.2090E-001
 -12.2206    0.1715E-001
 -12.2131    0.1435E-001
 -12.2056    0.1244E-001
 -12.1980    0.1137E-001
 -12.1905    0.1113E-001
 -12.1830    0.1171E-001
 -12.1755    0.1314E-001
 -12.1680    0.1548E-001
 -12.1605    0.1880E-001
 -12.1530    0.2320E-001
 -12.1455    0.2880E-001
 -12.1380    0.3573E-001
 -12.1305    0.4414E-001
 -12.1230    0.5417E-001
 -12.1155    0.6597E-001
 -12.1080    0.7968E-001
 -12.1005    0.9540E-001
 -12.0930    0.1132E+000
 -12.0855    0.1333E+000
 -12.0780    0.1555E+000
 -12.0705    0.1799E+000
 -12.0630    0.2064E+000
 -12.0555    0.2350E+000
 -12.0480    0.2653E+000
 -12.0405    0.2973E+000
 -12.0330    0.3307E+000
 -12.0255    0.3650E+000
 -12.0180    0.4001E+000
 -12.0105    0.4354E+000
 -12.0030    0.4706E+000
 -11.9955    0.5052E+000
 -11.9880    0.5387E+000
 -11.9805    0.5708E+000
 -11.9730    0.6010E+000
 -11.9655    0.6287E+000
 -11.9580    0.6537E+000
 -11.9505    0.6756E+000
 -11.9430    0.6941E+000
 -11.9355    0.7089E+000
 -11.9280    0.7198E+000
 -11.9205    0.7267E+000
 -11.9130    0.7297E+000
 -11.9055    0.7288E+000
 -11.8980    0.7240E+000
 -11.8905    0.7156E+000
 -11.8830    0.7039E+000
 -11.8755    0.6890E+000
 -11.8680    0.6715E+000
 -11.8605    0.6515E+000
 -11.8530    0.6295E+000
 -11.8455    0.6058E+000
 -11.8380    0.5807E+000
 -11.8305    0.5545E+000
 -11.8230    0.5275E+000
 -11.8155    0.5000E+000
 -11.8080    0.4720E+000
 -11.8005    0.4440E+000
 -11.7929    0.4159E+000
 -11.7854    0.3879E+000
 -11.7779    0.3603E+000
 -11.7704    0.3331E+000
 -11.7629    0.3066E+000
 -11.7554    0.2809E+000
 -11.7479    0.2562E+000
 -11.7404    0.2327E+000
 -11.7329    0.2105E+000
 -11.7254    0.1900E+000
 -11.7179    0.1714E+000
 -11.7104    0.1547E+000
 -11.7029    0.1403E+000
 -11.6954    0.1283E+000
 -11.6879    0.1188E+000
 -11.6804    0.1121E+000
 -11.6729    0.1081E+000
 -11.6654    0.1069E+000
 -11.6579    0.1085E+000
 -11.6504    0.1130E+000
 -11.6429    0.1201E+000
 -11.6354    0.1299E+000
 -11.6279    0.1421E+000
 -11.6204    0.1566E+000
 -11.6129    0.1730E+000
 -11.6054    0.1911E+000
 -11.5979    0.2105E+000
 -11.5904    0.2309E+000
 -11.5829    0.2520E+000
 -11.5754    0.2733E+000
 -11.5679    0.2944E+000
 -11.5604    0.3149E+000
 -11.5529    0.3345E+000
 -11.5454    0.3528E+000
 -11.5379    0.3695E+000
 -11.5304    0.3843E+000
 -11.5229    0.3970E+000
 -11.5154    0.4073E+000
 -11.5079    0.4151E+000
 -11.5004    0.4202E+000
 -11.4929    0.4227E+000
 -11.4854    0.4224E+000
 -11.4779    0.4193E+000
 -11.4704    0.4136E+000
 -11.4629    0.4052E+000
 -11.4554    0.3944E+000
 -11.4479    0.3813E+000
 -11.4404    0.3662E+000
 -11.4329    0.3491E+000
 -11.4254    0.3305E+000
 -11.4179    0.3106E+000
 -11.4104    0.2897E+000
 -11.4029    0.2681E+000
 -11.3953    0.2462E+000
 -11.3878    0.2244E+000
 -11.3803    0.2028E+000
 -11.3728    0.1819E+000
 -11.3653    0.1619E+000
 -11.3578    0.1431E+000
 -11.3503    0.1255E+000
 -11.3428    0.1096E+000
 -11.3353    0.9521E-001
 -11.3278    0.8262E-001
 -11.3203    0.7183E-001
 -11.3128    0.6287E-001
 -11.3053    0.5576E-001
 -11.2978    0.5045E-001
 -11.2903    0.4693E-001
 -11.2828    0.4512E-001
 -11.2753    0.4497E-001
 -11.2678    0.4640E-001
 -11.2603    0.4932E-001
 -11.2528    0.5364E-001
 -11.2453    0.5926E-001
 -11.2378    0.6608E-001
 -11.2303    0.7398E-001
 -11.2228    0.8284E-001
 -11.2153    0.9254E-001
 -11.2078    0.1030E+000
 -11.2003    0.1140E+000
 -11.1928    0.1254E+000
 -11.1853    0.1373E+000
 -11.1778    0.1494E+000
 -11.1703    0.1617E+000
 -11.1628    0.1742E+000
 -11.1553    0.1868E+000
 -11.1478    0.1996E+000
 -11.1403    0.2126E+000
 -11.1328    0.2260E+000
 -11.1253    0.2399E+000
 -11.1178    0.2544E+000
 -11.1103    0.2697E+000
 -11.1028    0.2861E+000
 -11.0953    0.3037E+000
 -11.0878    0.3226E+000
 -11.0803    0.3432E+000
 -11.0728    0.3655E+000
 -11.0653    0.3896E+000
 -11.0578    0.4155E+000
 -11.0503    0.4431E+000
 -11.0428    0.4725E+000
 -11.0353    0.5034E+000
 -11.0278    0.5355E+000
 -11.0203    0.5685E+000
 -11.0128    0.6021E+000
 -11.0053    0.6357E+000
 -10.9977    0.6688E+000
 -10.9902    0.7011E+000
 -10.9827    0.7318E+000
 -10.9752    0.7605E+000
 -10.9677    0.7866E+000
 -10.9602    0.8097E+000
 -10.9527    0.8292E+000
 -10.9452    0.8449E+000
 -10.9377    0.8564E+000
 -10.9302    0.8634E+000
 -10.9227    0.8656E+000
 -10.9152    0.8631E+000
 -10.9077    0.8558E+000
 -10.9002    0.8436E+000
 -10.8927    0.8269E+000
 -10.8852    0.8056E+000
 -10.8777    0.7802E+000
 -10.8702    0.7509E+000
 -10.8627    0.7181E+000
 -10.8552    0.6824E+000
 -10.8477    0.6442E+000
 -10.8402    0.6040E+000
 -10.8327    0.5624E+000
 -10.8252    0.5200E+000
 -10.8177    0.4773E+000
 -10.8102    0.4348E+000
 -10.8027    0.3932E+000
 -10.7952    0.3527E+000
 -10.7877    0.3140E+000
 -10.7802    0.2772E+000
 -10.7727    0.2427E+000
 -10.7652    0.2108E+000
 -10.7577    0.1815E+000
 -10.7502    0.1549E+000
 -10.7427    0.1311E+000
 -10.7352    0.1099E+000
 -10.7277    0.9134E-001
 -10.7202    0.7523E-001
 -10.7127    0.6138E-001
 -10.7052    0.4962E-001
 -10.6977    0.3974E-001
 -10.6902    0.3153E-001
 -10.6827    0.2477E-001
 -10.6752    0.1928E-001
 -10.6677    0.1486E-001
 -10.6602    0.1134E-001
 -10.6527    0.8567E-002
 -10.6452    0.6410E-002
 -10.6377    0.4749E-002
 -10.6302    0.3484E-002
 -10.6227    0.2531E-002
 -10.6152    0.1822E-002
 -10.6077    0.1301E-002
 -10.6002    0.9235E-003
 -10.5926    0.6554E-003
 -10.5851    0.4705E-003
 -10.5776    0.3499E-003
 -10.5701    0.2805E-003
 -10.5626    0.2547E-003
 -10.5551    0.2697E-003
 -10.5476    0.3274E-003
 -10.5401    0.4344E-003
 -10.5326    0.6029E-003
 -10.5251    0.8508E-003
 -10.5176    0.1203E-002
 -10.5101    0.1693E-002
 -10.5026    0.2363E-002
 -10.4951    0.3267E-002
 -10.4876    0.4473E-002
 -10.4801    0.6061E-002
 -10.4726    0.8129E-002
 -10.4651    0.1079E-001
 -10.4576    0.1418E-001
 -10.4501    0.1844E-001
 -10.4426    0.2374E-001
 -10.4351    0.3025E-001
 -10.4276    0.3817E-001
 -10.4201    0.4767E-001
 -10.4126    0.5896E-001
 -10.4051    0.7221E-001
 -10.3976    0.8758E-001
 -10.3901    0.1052E+000
 -10.3826    0.1252E+000
 -10.3751    0.1476E+000
 -10.3676    0.1723E+000
 -10.3601    0.1994E+000
 -10.3526    0.2287E+000
 -10.3451    0.2599E+000
 -10.3376    0.2929E+000
 -10.3301    0.3273E+000
 -10.3226    0.3628E+000
 -10.3151    0.3988E+000
 -10.3076    0.4350E+000
 -10.3001    0.4708E+000
 -10.2926    0.5060E+000
 -10.2851    0.5399E+000
 -10.2776    0.5724E+000
 -10.2701    0.6029E+000
 -10.2626    0.6314E+000
 -10.2551    0.6576E+000
 -10.2476    0.6814E+000
 -10.2401    0.7029E+000
 -10.2326    0.7223E+000
 -10.2251    0.7396E+000
 -10.2176    0.7552E+000
 -10.2101    0.7694E+000
 -10.2026    0.7827E+000
 -10.1950    0.7955E+000
 -10.1875    0.8081E+000
 -10.1800    0.8209E+000
 -10.1725    0.8344E+000
 -10.1650    0.8488E+000
 -10.1575    0.8642E+000
 -10.1500    0.8807E+000
 -10.1425    0.8983E+000
 -10.1350    0.9168E+000
 -10.1275    0.9357E+000
 -10.1200    0.9548E+000
 -10.1125    0.9733E+000
 -10.1050    0.9906E+000
 -10.0975    0.1006E+001
 -10.0900    0.1019E+001
 -10.0825    0.1028E+001
 -10.0750    0.1033E+001
 -10.0675    0.1033E+001
 -10.0600    0.1028E+001
 -10.0525    0.1017E+001
 -10.0450    0.1000E+001
 -10.0375    0.9769E+000
 -10.0300    0.9479E+000
 -10.0225    0.9131E+000
 -10.0150    0.8731E+000
 -10.0075    0.8285E+000
 -10.0000    0.7799E+000
  -9.9925    0.7283E+000
  -9.9850    0.6745E+000
  -9.9775    0.6194E+000
  -9.9700    0.5639E+000
  -9.9625    0.5089E+000
  -9.9550    0.4552E+000
  -9.9475    0.4035E+000
  -9.9400    0.3544E+000
  -9.9325    0.3085E+000
  -9.9250    0.2660E+000
  -9.9175    0.2272E+000
  -9.9100    0.1922E+000
  -9.9025    0.1610E+000
  -9.8950    0.1336E+000
  -9.8875    0.1098E+000
  -9.8800    0.8933E-001
  -9.8725    0.7196E-001
  -9.8650    0.5739E-001
  -9.8575    0.4531E-001
  -9.8500    0.3541E-001
  -9.8425    0.2739E-001
  -9.8350    0.2098E-001
  -9.8275    0.1590E-001
  -9.8200    0.1192E-001
  -9.8125    0.8851E-002
  -9.8050    0.6503E-002
  -9.7974    0.4729E-002
  -9.7899    0.3405E-002
  -9.7824    0.2428E-002
  -9.7749    0.1718E-002
  -9.7674    0.1210E-002
  -9.7599    0.8549E-003
  -9.7524    0.6145E-003
  -9.7449    0.4625E-003
  -9.7374    0.3807E-003
  -9.7299    0.3587E-003
  -9.7224    0.3925E-003
  -9.7149    0.4845E-003
  -9.7074    0.6433E-003
  -9.6999    0.8841E-003
  -9.6924    0.1229E-002
  -9.6849    0.1708E-002
  -9.6774    0.2362E-002
  -9.6699    0.3239E-002
  -9.6624    0.4403E-002
  -9.6549    0.5929E-002
  -9.6474    0.7908E-002
  -9.6399    0.1045E-001
  -9.6324    0.1367E-001
  -9.6249    0.1772E-001
  -9.6174    0.2276E-001
  -9.6099    0.2896E-001
  -9.6024    0.3650E-001
  -9.5949    0.4559E-001
  -9.5874    0.5644E-001
  -9.5799    0.6923E-001
  -9.5724    0.8417E-001
  -9.5649    0.1014E+000
  -9.5574    0.1212E+000
  -9.5499    0.1436E+000
  -9.5424    0.1686E+000
  -9.5349    0.1963E+000
  -9.5274    0.2268E+000
  -9.5199    0.2597E+000
  -9.5124    0.2951E+000
  -9.5049    0.3326E+000
  -9.4974    0.3719E+000
  -9.4899    0.4126E+000
  -9.4824    0.4542E+000
  -9.4749    0.4961E+000
  -9.4674    0.5379E+000
  -9.4599    0.5788E+000
  -9.4524    0.6183E+000
  -9.4449    0.6556E+000
  -9.4374    0.6903E+000
  -9.4299    0.7216E+000
  -9.4224    0.7491E+000
  -9.4149    0.7722E+000
  -9.4074    0.7907E+000
  -9.3998    0.8042E+000
  -9.3923    0.8126E+000
  -9.3848    0.8157E+000
  -9.3773    0.8136E+000
  -9.3698    0.8063E+000
  -9.3623    0.7941E+000
  -9.3548    0.7772E+000
  -9.3473    0.7560E+000
  -9.3398    0.7309E+000
  -9.3323    0.7023E+000
  -9.3248    0.6708E+000
  -9.3173    0.6367E+000
  -9.3098    0.6007E+000
  -9.3023    0.5632E+000
  -9.2948    0.5248E+000
  -9.2873    0.4859E+000
  -9.2798    0.4471E+000
  -9.2723    0.4087E+000
  -9.2648    0.3713E+000
  -9.2573    0.3353E+000
  -9.2498    0.3009E+000
  -9.2423    0.2686E+000
  -9.2348    0.2386E+000
  -9.2273    0.2112E+000
  -9.2198    0.1866E+000
  -9.2123    0.1650E+000
  -9.2048    0.1466E+000
  -9.1973    0.1313E+000
  -9.1898    0.1195E+000
  -9.1823    0.1110E+000
  -9.1748    0.1060E+000
  -9.1673    0.1044E+000
  -9.1598    0.1061E+000
  -9.1523    0.1112E+000
  -9.1448    0.1196E+000
  -9.1373    0.1311E+000
  -9.1298    0.1455E+000
  -9.1223    0.1627E+000
  -9.1148    0.1824E+000
  -9.1073    0.2044E+000
  -9.0998    0.2282E+000
  -9.0923    0.2535E+000
  -9.0848    0.2798E+000
  -9.0773    0.3067E+000
  -9.0698    0.3338E+000
  -9.0623    0.3604E+000
  -9.0548    0.3861E+000
  -9.0473    0.4105E+000
  -9.0398    0.4329E+000
  -9.0323    0.4532E+000
  -9.0248    0.4708E+000
  -9.0173    0.4856E+000
  -9.0098    0.4973E+000
  -9.0023    0.5059E+000
  -8.9947    0.5115E+000
  -8.9872    0.5141E+000
  -8.9797    0.5142E+000
  -8.9722    0.5119E+000
  -8.9647    0.5079E+000
  -8.9572    0.5027E+000
  -8.9497    0.4970E+000
  -8.9422    0.4913E+000
  -8.9347    0.4863E+000
  -8.9272    0.4828E+000
  -8.9197    0.4814E+000
  -8.9122    0.4826E+000
  -8.9047    0.4868E+000
  -8.8972    0.4944E+000
  -8.8897    0.5055E+000
  -8.8822    0.5201E+000
  -8.8747    0.5381E+000
  -8.8672    0.5591E+000
  -8.8597    0.5827E+000
  -8.8522    0.6082E+000
  -8.8447    0.6349E+000
  -8.8372    0.6619E+000
  -8.8297    0.6884E+000
  -8.8222    0.7134E+000
  -8.8147    0.7362E+000
  -8.8072    0.7559E+000
  -8.7997    0.7719E+000
  -8.7922    0.7836E+000
  -8.7847    0.7907E+000
  -8.7772    0.7928E+000
  -8.7697    0.7901E+000
  -8.7622    0.7826E+000
  -8.7547    0.7706E+000
  -8.7472    0.7548E+000
  -8.7397    0.7356E+000
  -8.7322    0.7138E+000
  -8.7247    0.6902E+000
  -8.7172    0.6656E+000
  -8.7097    0.6410E+000
  -8.7022    0.6170E+000
  -8.6947    0.5944E+000
  -8.6872    0.5739E+000
  -8.6797    0.5560E+000
  -8.6722    0.5411E+000
  -8.6647    0.5294E+000
  -8.6572    0.5211E+000
  -8.6497    0.5161E+000
  -8.6422    0.5142E+000
  -8.6347    0.5151E+000
  -8.6272    0.5184E+000
  -8.6197    0.5236E+000
  -8.6122    0.5301E+000
  -8.6047    0.5374E+000
  -8.5971    0.5447E+000
  -8.5896    0.5515E+000
  -8.5821    0.5572E+000
  -8.5746    0.5614E+000
  -8.5671    0.5635E+000
  -8.5596    0.5633E+000
  -8.5521    0.5604E+000
  -8.5446    0.5548E+000
  -8.5371    0.5464E+000
  -8.5296    0.5352E+000
  -8.5221    0.5215E+000
  -8.5146    0.5055E+000
  -8.5071    0.4876E+000
  -8.4996    0.4682E+000
  -8.4921    0.4479E+000
  -8.4846    0.4271E+000
  -8.4771    0.4065E+000
  -8.4696    0.3866E+000
  -8.4621    0.3680E+000
  -8.4546    0.3514E+000
  -8.4471    0.3371E+000
  -8.4396    0.3257E+000
  -8.4321    0.3176E+000
  -8.4246    0.3130E+000
  -8.4171    0.3122E+000
  -8.4096    0.3153E+000
  -8.4021    0.3222E+000
  -8.3946    0.3329E+000
  -8.3871    0.3470E+000
  -8.3796    0.3642E+000
  -8.3721    0.3842E+000
  -8.3646    0.4062E+000
  -8.3571    0.4298E+000
  -8.3496    0.4541E+000
  -8.3421    0.4786E+000
  -8.3346    0.5024E+000
  -8.3271    0.5249E+000
  -8.3196    0.5453E+000
  -8.3121    0.5630E+000
  -8.3046    0.5775E+000
  -8.2971    0.5883E+000
  -8.2896    0.5950E+000
  -8.2821    0.5976E+000
  -8.2746    0.5958E+000
  -8.2671    0.5898E+000
  -8.2596    0.5796E+000
  -8.2521    0.5656E+000
  -8.2446    0.5481E+000
  -8.2371    0.5276E+000
  -8.2296    0.5047E+000
  -8.2221    0.4798E+000
  -8.2146    0.4535E+000
  -8.2071    0.4265E+000
  -8.1995    0.3992E+000
  -8.1920    0.3723E+000
  -8.1845    0.3461E+000
  -8.1770    0.3212E+000
  -8.1695    0.2979E+000
  -8.1620    0.2765E+000
  -8.1545    0.2572E+000
  -8.1470    0.2402E+000
  -8.1395    0.2256E+000
  -8.1320    0.2133E+000
  -8.1245    0.2035E+000
  -8.1170    0.1959E+000
  -8.1095    0.1905E+000
  -8.1020    0.1872E+000
  -8.0945    0.1858E+000
  -8.0870    0.1861E+000
  -8.0795    0.1881E+000
  -8.0720    0.1914E+000
  -8.0645    0.1961E+000
  -8.0570    0.2020E+000
  -8.0495    0.2091E+000
  -8.0420    0.2173E+000
  -8.0345    0.2266E+000
  -8.0270    0.2372E+000
  -8.0195    0.2490E+000
  -8.0120    0.2623E+000
  -8.0045    0.2772E+000
  -7.9970    0.2940E+000
  -7.9895    0.3127E+000
  -7.9820    0.3337E+000
  -7.9745    0.3573E+000
  -7.9670    0.3837E+000
  -7.9595    0.4131E+000
  -7.9520    0.4457E+000
  -7.9445    0.4817E+000
  -7.9370    0.5213E+000
  -7.9295    0.5644E+000
  -7.9220    0.6110E+000
  -7.9145    0.6610E+000
  -7.9070    0.7141E+000
  -7.8995    0.7700E+000
  -7.8920    0.8281E+000
  -7.8845    0.8877E+000
  -7.8770    0.9481E+000
  -7.8695    0.1008E+001
  -7.8620    0.1068E+001
  -7.8545    0.1125E+001
  -7.8470    0.1179E+001
  -7.8395    0.1229E+001
  -7.8320    0.1273E+001
  -7.8245    0.1311E+001
  -7.8170    0.1341E+001
  -7.8095    0.1364E+001
  -7.8020    0.1378E+001
  -7.7944    0.1383E+001
  -7.7869    0.1379E+001
  -7.7794    0.1365E+001
  -7.7719    0.1343E+001
  -7.7644    0.1313E+001
  -7.7569    0.1274E+001
  -7.7494    0.1229E+001
  -7.7419    0.1179E+001
  -7.7344    0.1123E+001
  -7.7269    0.1065E+001
  -7.7194    0.1004E+001
  -7.7119    0.9417E+000
  -7.7044    0.8799E+000
  -7.6969    0.8195E+000
  -7.6894    0.7616E+000
  -7.6819    0.7071E+000
  -7.6744    0.6570E+000
  -7.6669    0.6119E+000
  -7.6594    0.5727E+000
  -7.6519    0.5397E+000
  -7.6444    0.5134E+000
  -7.6369    0.4942E+000
  -7.6294    0.4821E+000
  -7.6219    0.4772E+000
  -7.6144    0.4794E+000
  -7.6069    0.4886E+000
  -7.5994    0.5042E+000
  -7.5919    0.5259E+000
  -7.5844    0.5530E+000
  -7.5769    0.5847E+000
  -7.5694    0.6202E+000
  -7.5619    0.6585E+000
  -7.5544    0.6985E+000
  -7.5469    0.7390E+000
  -7.5394    0.7791E+000
  -7.5319    0.8174E+000
  -7.5244    0.8529E+000
  -7.5169    0.8846E+000
  -7.5094    0.9115E+000
  -7.5019    0.9329E+000
  -7.4944    0.9481E+000
  -7.4869    0.9567E+000
  -7.4794    0.9585E+000
  -7.4719    0.9534E+000
  -7.4644    0.9416E+000
  -7.4569    0.9235E+000
  -7.4494    0.8995E+000
  -7.4419    0.8703E+000
  -7.4344    0.8366E+000
  -7.4269    0.7992E+000
  -7.4194    0.7590E+000
  -7.4119    0.7169E+000
  -7.4044    0.6736E+000
  -7.3968    0.6298E+000
  -7.3893    0.5863E+000
  -7.3818    0.5437E+000
  -7.3743    0.5024E+000
  -7.3668    0.4629E+000
  -7.3593    0.4254E+000
  -7.3518    0.3902E+000
  -7.3443    0.3575E+000
  -7.3368    0.3273E+000
  -7.3293    0.2997E+000
  -7.3218    0.2748E+000
  -7.3143    0.2526E+000
  -7.3068    0.2331E+000
  -7.2993    0.2162E+000
  -7.2918    0.2020E+000
  -7.2843    0.1906E+000
  -7.2768    0.1818E+000
  -7.2693    0.1758E+000
  -7.2618    0.1726E+000
  -7.2543    0.1721E+000
  -7.2468    0.1746E+000
  -7.2393    0.1799E+000
  -7.2318    0.1883E+000
  -7.2243    0.1997E+000
  -7.2168    0.2143E+000
  -7.2093    0.2322E+000
  -7.2018    0.2535E+000
  -7.1943    0.2785E+000
  -7.1868    0.3072E+000
  -7.1793    0.3398E+000
  -7.1718    0.3766E+000
  -7.1643    0.4175E+000
  -7.1568    0.4626E+000
  -7.1493    0.5119E+000
  -7.1418    0.5653E+000
  -7.1343    0.6224E+000
  -7.1268    0.6830E+000
  -7.1193    0.7465E+000
  -7.1118    0.8122E+000
  -7.1043    0.8793E+000
  -7.0968    0.9469E+000
  -7.0893    0.1014E+001
  -7.0818    0.1079E+001
  -7.0743    0.1142E+001
  -7.0668    0.1201E+001
  -7.0593    0.1256E+001
  -7.0518    0.1304E+001
  -7.0443    0.1347E+001
  -7.0368    0.1383E+001
  -7.0293    0.1412E+001
  -7.0218    0.1434E+001
  -7.0143    0.1450E+001
  -7.0068    0.1460E+001
  -6.9992    0.1464E+001
  -6.9917    0.1463E+001
  -6.9842    0.1459E+001
  -6.9767    0.1452E+001
  -6.9692    0.1443E+001
  -6.9617    0.1433E+001
  -6.9542    0.1423E+001
  -6.9467    0.1412E+001
  -6.9392    0.1403E+001
  -6.9317    0.1393E+001
  -6.9242    0.1385E+001
  -6.9167    0.1377E+001
  -6.9092    0.1369E+001
  -6.9017    0.1361E+001
  -6.8942    0.1352E+001
  -6.8867    0.1341E+001
  -6.8792    0.1329E+001
  -6.8717    0.1314E+001
  -6.8642    0.1296E+001
  -6.8567    0.1274E+001
  -6.8492    0.1250E+001
  -6.8417    0.1223E+001
  -6.8342    0.1193E+001
  -6.8267    0.1161E+001
  -6.8192    0.1126E+001
  -6.8117    0.1091E+001
  -6.8042    0.1055E+001
  -6.7967    0.1019E+001
  -6.7892    0.9839E+000
  -6.7817    0.9502E+000
  -6.7742    0.9183E+000
  -6.7667    0.8888E+000
  -6.7592    0.8618E+000
  -6.7517    0.8374E+000
  -6.7442    0.8158E+000
  -6.7367    0.7966E+000
  -6.7292    0.7797E+000
  -6.7217    0.7646E+000
  -6.7142    0.7510E+000
  -6.7067    0.7385E+000
  -6.6992    0.7265E+000
  -6.6917    0.7147E+000
  -6.6842    0.7028E+000
  -6.6767    0.6905E+000
  -6.6692    0.6777E+000
  -6.6617    0.6644E+000
  -6.6542    0.6509E+000
  -6.6467    0.6374E+000
  -6.6392    0.6245E+000
  -6.6317    0.6126E+000
  -6.6242    0.6026E+000
  -6.6167    0.5951E+000
  -6.6092    0.5909E+000
  -6.6017    0.5907E+000
  -6.5941    0.5952E+000
  -6.5866    0.6050E+000
  -6.5791    0.6204E+000
  -6.5716    0.6418E+000
  -6.5641    0.6692E+000
  -6.5566    0.7024E+000
  -6.5491    0.7409E+000
  -6.5416    0.7842E+000
  -6.5341    0.8315E+000
  -6.5266    0.8817E+000
  -6.5191    0.9338E+000
  -6.5116    0.9867E+000
  -6.5041    0.1039E+001
  -6.4966    0.1090E+001
  -6.4891    0.1138E+001
  -6.4816    0.1182E+001
  -6.4741    0.1222E+001
  -6.4666    0.1257E+001
  -6.4591    0.1286E+001
  -6.4516    0.1310E+001
  -6.4441    0.1328E+001
  -6.4366    0.1340E+001
  -6.4291    0.1347E+001
  -6.4216    0.1348E+001
  -6.4141    0.1345E+001
  -6.4066    0.1337E+001
  -6.3991    0.1325E+001
  -6.3916    0.1309E+001
  -6.3841    0.1290E+001
  -6.3766    0.1267E+001
  -6.3691    0.1240E+001
  -6.3616    0.1211E+001
  -6.3541    0.1179E+001
  -6.3466    0.1143E+001
  -6.3391    0.1105E+001
  -6.3316    0.1064E+001
  -6.3241    0.1020E+001
  -6.3166    0.9747E+000
  -6.3091    0.9275E+000
  -6.3016    0.8790E+000
  -6.2941    0.8299E+000
  -6.2866    0.7808E+000
  -6.2791    0.7324E+000
  -6.2716    0.6853E+000
  -6.2641    0.6401E+000
  -6.2566    0.5977E+000
  -6.2491    0.5584E+000
  -6.2416    0.5228E+000
  -6.2341    0.4913E+000
  -6.2266    0.4642E+000
  -6.2191    0.4417E+000
  -6.2116    0.4238E+000
  -6.2041    0.4105E+000
  -6.1965    0.4016E+000
  -6.1890    0.3971E+000
  -6.1815    0.3965E+000
  -6.1740    0.3996E+000
  -6.1665    0.4060E+000
  -6.1590    0.4153E+000
  -6.1515    0.4271E+000
  -6.1440    0.4412E+000
  -6.1365    0.4570E+000
  -6.1290    0.4744E+000
  -6.1215    0.4930E+000
  -6.1140    0.5125E+000
  -6.1065    0.5329E+000
  -6.0990    0.5540E+000
  -6.0915    0.5757E+000
  -6.0840    0.5980E+000
  -6.0765    0.6209E+000
  -6.0690    0.6446E+000
  -6.0615    0.6691E+000
  -6.0540    0.6945E+000
  -6.0465    0.7208E+000
  -6.0390    0.7482E+000
  -6.0315    0.7766E+000
  -6.0240    0.8059E+000
  -6.0165    0.8358E+000
  -6.0090    0.8662E+000
  -6.0015    0.8965E+000
  -5.9940    0.9263E+000
  -5.9865    0.9548E+000
  -5.9790    0.9814E+000
  -5.9715    0.1005E+001
  -5.9640    0.1026E+001
  -5.9565    0.1042E+001
  -5.9490    0.1053E+001
  -5.9415    0.1059E+001
  -5.9340    0.1060E+001
  -5.9265    0.1054E+001
  -5.9190    0.1042E+001
  -5.9115    0.1025E+001
  -5.9040    0.1002E+001
  -5.8965    0.9734E+000
  -5.8890    0.9411E+000
  -5.8815    0.9052E+000
  -5.8740    0.8667E+000
  -5.8665    0.8264E+000
  -5.8590    0.7851E+000
  -5.8515    0.7438E+000
  -5.8440    0.7031E+000
  -5.8365    0.6638E+000
  -5.8290    0.6263E+000
  -5.8215    0.5910E+000
  -5.8140    0.5583E+000
  -5.8065    0.5282E+000
  -5.7989    0.5010E+000
  -5.7914    0.4764E+000
  -5.7839    0.4544E+000
  -5.7764    0.4347E+000
  -5.7689    0.4171E+000
  -5.7614    0.4013E+000
  -5.7539    0.3870E+000
  -5.7464    0.3738E+000
  -5.7389    0.3616E+000
  -5.7314    0.3499E+000
  -5.7239    0.3385E+000
  -5.7164    0.3274E+000
  -5.7089    0.3163E+000
  -5.7014    0.3052E+000
  -5.6939    0.2940E+000
  -5.6864    0.2829E+000
  -5.6789    0.2720E+000
  -5.6714    0.2614E+000
  -5.6639    0.2515E+000
  -5.6564    0.2425E+000
  -5.6489    0.2348E+000
  -5.6414    0.2288E+000
  -5.6339    0.2249E+000
  -5.6264    0.2235E+000
  -5.6189    0.2249E+000
  -5.6114    0.2296E+000
  -5.6039    0.2380E+000
  -5.5964    0.2503E+000
  -5.5889    0.2669E+000
  -5.5814    0.2880E+000
  -5.5739    0.3138E+000
  -5.5664    0.3443E+000
  -5.5589    0.3797E+000
  -5.5514    0.4197E+000
  -5.5439    0.4642E+000
  -5.5364    0.5129E+000
  -5.5289    0.5655E+000
  -5.5214    0.6212E+000
  -5.5139    0.6796E+000
  -5.5064    0.7398E+000
  -5.4989    0.8010E+000
  -5.4914    0.8623E+000
  -5.4839    0.9225E+000
  -5.4764    0.9808E+000
  -5.4689    0.1036E+001
  -5.4614    0.1088E+001
  -5.4539    0.1134E+001
  -5.4464    0.1175E+001
  -5.4389    0.1210E+001
  -5.4314    0.1238E+001
  -5.4239    0.1260E+001
  -5.4164    0.1275E+001
  -5.4089    0.1284E+001
  -5.4014    0.1286E+001
  -5.3938    0.1284E+001
  -5.3863    0.1276E+001
  -5.3788    0.1264E+001
  -5.3713    0.1249E+001
  -5.3638    0.1231E+001
  -5.3563    0.1211E+001
  -5.3488    0.1190E+001
  -5.3413    0.1169E+001
  -5.3338    0.1146E+001
  -5.3263    0.1123E+001
  -5.3188    0.1100E+001
  -5.3113    0.1077E+001
  -5.3038    0.1053E+001
  -5.2963    0.1028E+001
  -5.2888    0.1003E+001
  -5.2813    0.9759E+000
  -5.2738    0.9481E+000
  -5.2663    0.9189E+000
  -5.2588    0.8885E+000
  -5.2513    0.8569E+000
  -5.2438    0.8242E+000
  -5.2363    0.7908E+000
  -5.2288    0.7569E+000
  -5.2213    0.7229E+000
  -5.2138    0.6892E+000
  -5.2063    0.6561E+000
  -5.1988    0.6241E+000
  -5.1913    0.5934E+000
  -5.1838    0.5643E+000
  -5.1763    0.5369E+000
  -5.1688    0.5114E+000
  -5.1613    0.4878E+000
  -5.1538    0.4660E+000
  -5.1463    0.4460E+000
  -5.1388    0.4276E+000
  -5.1313    0.4106E+000
  -5.1238    0.3948E+000
  -5.1163    0.3801E+000
  -5.1088    0.3661E+000
  -5.1013    0.3529E+000
  -5.0938    0.3401E+000
  -5.0863    0.3278E+000
  -5.0788    0.3160E+000
  -5.0713    0.3045E+000
  -5.0638    0.2934E+000
  -5.0563    0.2829E+000
  -5.0488    0.2729E+000
  -5.0413    0.2636E+000
  -5.0338    0.2551E+000
  -5.0263    0.2476E+000
  -5.0188    0.2410E+000
  -5.0113    0.2356E+000
  -5.0038    0.2313E+000
  -4.9962    0.2283E+000
  -4.9887    0.2264E+000
  -4.9812    0.2258E+000
  -4.9737    0.2265E+000
  -4.9662    0.2283E+000
  -4.9587    0.2312E+000
  -4.9512    0.2352E+000
  -4.9437    0.2402E+000
  -4.9362    0.2460E+000
  -4.9287    0.2526E+000
  -4.9212    0.2598E+000
  -4.9137    0.2676E+000
  -4.9062    0.2757E+000
  -4.8987    0.2840E+000
  -4.8912    0.2924E+000
  -4.8837    0.3009E+000
  -4.8762    0.3092E+000
  -4.8687    0.3172E+000
  -4.8612    0.3251E+000
  -4.8537    0.3326E+000
  -4.8462    0.3399E+000
  -4.8387    0.3469E+000
  -4.8312    0.3539E+000
  -4.8237    0.3608E+000
  -4.8162    0.3680E+000
  -4.8087    0.3757E+000
  -4.8012    0.3840E+000
  -4.7937    0.3933E+000
  -4.7862    0.4039E+000
  -4.7787    0.4160E+000
  -4.7712    0.4299E+000
  -4.7637    0.4458E+000
  -4.7562    0.4639E+000
  -4.7487    0.4843E+000
  -4.7412    0.5069E+000
  -4.7337    0.5318E+000
  -4.7262    0.5588E+000
  -4.7187    0.5876E+000
  -4.7112    0.6179E+000
  -4.7037    0.6494E+000
  -4.6962    0.6816E+000
  -4.6887    0.7141E+000
  -4.6812    0.7463E+000
  -4.6737    0.7779E+000
  -4.6662    0.8085E+000
  -4.6587    0.8376E+000
  -4.6512    0.8651E+000
  -4.6437    0.8907E+000
  -4.6362    0.9144E+000
  -4.6287    0.9360E+000
  -4.6212    0.9556E+000
  -4.6137    0.9732E+000
  -4.6062    0.9888E+000
  -4.5986    0.1002E+001
  -4.5911    0.1014E+001
  -4.5836    0.1024E+001
  -4.5761    0.1031E+001
  -4.5686    0.1036E+001
  -4.5611    0.1038E+001
  -4.5536    0.1037E+001
  -4.5461    0.1032E+001
  -4.5386    0.1024E+001
  -4.5311    0.1011E+001
  -4.5236    0.9947E+000
  -4.5161    0.9735E+000
  -4.5086    0.9479E+000
  -4.5011    0.9181E+000
  -4.4936    0.8844E+000
  -4.4861    0.8473E+000
  -4.4786    0.8074E+000
  -4.4711    0.7655E+000
  -4.4636    0.7225E+000
  -4.4561    0.6793E+000
  -4.4486    0.6369E+000
  -4.4411    0.5962E+000
  -4.4336    0.5582E+000
  -4.4261    0.5236E+000
  -4.4186    0.4933E+000
  -4.4111    0.4678E+000
  -4.4036    0.4474E+000
  -4.3961    0.4326E+000
  -4.3886    0.4233E+000
  -4.3811    0.4194E+000
  -4.3736    0.4208E+000
  -4.3661    0.4269E+000
  -4.3586    0.4374E+000
  -4.3511    0.4515E+000
  -4.3436    0.4684E+000
  -4.3361    0.4875E+000
  -4.3286    0.5078E+000
  -4.3211    0.5286E+000
  -4.3136    0.5490E+000
  -4.3061    0.5683E+000
  -4.2986    0.5858E+000
  -4.2911    0.6008E+000
  -4.2836    0.6130E+000
  -4.2761    0.6218E+000
  -4.2686    0.6270E+000
  -4.2611    0.6286E+000
  -4.2536    0.6263E+000
  -4.2461    0.6204E+000
  -4.2386    0.6110E+000
  -4.2311    0.5982E+000
  -4.2236    0.5825E+000
  -4.2161    0.5642E+000
  -4.2086    0.5436E+000
  -4.2011    0.5211E+000
  -4.1935    0.4973E+000
  -4.1860    0.4725E+000
  -4.1785    0.4471E+000
  -4.1710    0.4217E+000
  -4.1635    0.3967E+000
  -4.1560    0.3725E+000
  -4.1485    0.3496E+000
  -4.1410    0.3285E+000
  -4.1335    0.3095E+000
  -4.1260    0.2930E+000
  -4.1185    0.2795E+000
  -4.1110    0.2693E+000
  -4.1035    0.2627E+000
  -4.0960    0.2598E+000
  -4.0885    0.2607E+000
  -4.0810    0.2656E+000
  -4.0735    0.2744E+000
  -4.0660    0.2868E+000
  -4.0585    0.3025E+000
  -4.0510    0.3213E+000
  -4.0435    0.3427E+000
  -4.0360    0.3660E+000
  -4.0285    0.3907E+000
  -4.0210    0.4161E+000
  -4.0135    0.4416E+000
  -4.0060    0.4666E+000
  -3.9985    0.4904E+000
  -3.9910    0.5126E+000
  -3.9835    0.5327E+000
  -3.9760    0.5503E+000
  -3.9685    0.5653E+000
  -3.9610    0.5776E+000
  -3.9535    0.5872E+000
  -3.9460    0.5941E+000
  -3.9385    0.5986E+000
  -3.9310    0.6010E+000
  -3.9235    0.6015E+000
  -3.9160    0.6005E+000
  -3.9085    0.5982E+000
  -3.9010    0.5949E+000
  -3.8935    0.5909E+000
  -3.8860    0.5863E+000
  -3.8785    0.5812E+000
  -3.8710    0.5757E+000
  -3.8635    0.5697E+000
  -3.8560    0.5634E+000
  -3.8485    0.5567E+000
  -3.8410    0.5495E+000
  -3.8335    0.5419E+000
  -3.8260    0.5339E+000
  -3.8185    0.5255E+000
  -3.8110    0.5170E+000
  -3.8035    0.5086E+000
  -3.7959    0.5003E+000
  -3.7884    0.4926E+000
  -3.7809    0.4855E+000
  -3.7734    0.4795E+000
  -3.7659    0.4748E+000
  -3.7584    0.4715E+000
  -3.7509    0.4698E+000
  -3.7434    0.4698E+000
  -3.7359    0.4716E+000
  -3.7284    0.4752E+000
  -3.7209    0.4805E+000
  -3.7134    0.4874E+000
  -3.7059    0.4957E+000
  -3.6984    0.5052E+000
  -3.6909    0.5157E+000
  -3.6834    0.5268E+000
  -3.6759    0.5384E+000
  -3.6684    0.5501E+000
  -3.6609    0.5616E+000
  -3.6534    0.5727E+000
  -3.6459    0.5831E+000
  -3.6384    0.5925E+000
  -3.6309    0.6007E+000
  -3.6234    0.6075E+000
  -3.6159    0.6130E+000
  -3.6084    0.6169E+000
  -3.6009    0.6193E+000
  -3.5934    0.6204E+000
  -3.5859    0.6202E+000
  -3.5784    0.6190E+000
  -3.5709    0.6171E+000
  -3.5634    0.6148E+000
  -3.5559    0.6126E+000
  -3.5484    0.6107E+000
  -3.5409    0.6096E+000
  -3.5334    0.6096E+000
  -3.5259    0.6109E+000
  -3.5184    0.6137E+000
  -3.5109    0.6182E+000
  -3.5034    0.6241E+000
  -3.4959    0.6315E+000
  -3.4884    0.6401E+000
  -3.4809    0.6495E+000
  -3.4734    0.6593E+000
  -3.4659    0.6690E+000
  -3.4584    0.6782E+000
  -3.4509    0.6863E+000
  -3.4434    0.6928E+000
  -3.4359    0.6973E+000
  -3.4284    0.6995E+000
  -3.4209    0.6992E+000
  -3.4134    0.6962E+000
  -3.4059    0.6905E+000
  -3.3983    0.6823E+000
  -3.3908    0.6718E+000
  -3.3833    0.6592E+000
  -3.3758    0.6451E+000
  -3.3683    0.6298E+000
  -3.3608    0.6138E+000
  -3.3533    0.5977E+000
  -3.3458    0.5818E+000
  -3.3383    0.5666E+000
  -3.3308    0.5524E+000
  -3.3233    0.5396E+000
  -3.3158    0.5284E+000
  -3.3083    0.5188E+000
  -3.3008    0.5110E+000
  -3.2933    0.5048E+000
  -3.2858    0.5003E+000
  -3.2783    0.4972E+000
  -3.2708    0.4953E+000
  -3.2633    0.4943E+000
  -3.2558    0.4941E+000
  -3.2483    0.4943E+000
  -3.2408    0.4946E+000
  -3.2333    0.4948E+000
  -3.2258    0.4947E+000
  -3.2183    0.4941E+000
  -3.2108    0.4928E+000
  -3.2033    0.4908E+000
  -3.1958    0.4879E+000
  -3.1883    0.4841E+000
  -3.1808    0.4795E+000
  -3.1733    0.4741E+000
  -3.1658    0.4680E+000
  -3.1583    0.4613E+000
  -3.1508    0.4541E+000
  -3.1433    0.4466E+000
  -3.1358    0.4387E+000
  -3.1283    0.4308E+000
  -3.1208    0.4228E+000
  -3.1133    0.4150E+000
  -3.1058    0.4073E+000
  -3.0983    0.3998E+000
  -3.0908    0.3927E+000
  -3.0833    0.3860E+000
  -3.0758    0.3796E+000
  -3.0683    0.3737E+000
  -3.0608    0.3682E+000
  -3.0533    0.3631E+000
  -3.0458    0.3585E+000
  -3.0383    0.3542E+000
  -3.0308    0.3503E+000
  -3.0233    0.3467E+000
  -3.0158    0.3434E+000
  -3.0083    0.3402E+000
  -3.0008    0.3372E+000
  -2.9932    0.3341E+000
  -2.9857    0.3310E+000
  -2.9782    0.3278E+000
  -2.9707    0.3243E+000
  -2.9632    0.3206E+000
  -2.9557    0.3166E+000
  -2.9482    0.3123E+000
  -2.9407    0.3076E+000
  -2.9332    0.3027E+000
  -2.9257    0.2976E+000
  -2.9182    0.2924E+000
  -2.9107    0.2872E+000
  -2.9032    0.2821E+000
  -2.8957    0.2772E+000
  -2.8882    0.2728E+000
  -2.8807    0.2690E+000
  -2.8732    0.2659E+000
  -2.8657    0.2636E+000
  -2.8582    0.2621E+000
  -2.8507    0.2616E+000
  -2.8432    0.2620E+000
  -2.8357    0.2633E+000
  -2.8282    0.2654E+000
  -2.8207    0.2683E+000
  -2.8132    0.2718E+000
  -2.8057    0.2757E+000
  -2.7982    0.2800E+000
  -2.7907    0.2845E+000
  -2.7832    0.2890E+000
  -2.7757    0.2934E+000
  -2.7682    0.2977E+000
  -2.7607    0.3017E+000
  -2.7532    0.3054E+000
  -2.7457    0.3088E+000
  -2.7382    0.3118E+000
  -2.7307    0.3146E+000
  -2.7232    0.3172E+000
  -2.7157    0.3196E+000
  -2.7082    0.3220E+000
  -2.7007    0.3245E+000
  -2.6932    0.3272E+000
  -2.6857    0.3303E+000
  -2.6782    0.3339E+000
  -2.6707    0.3382E+000
  -2.6632    0.3433E+000
  -2.6557    0.3493E+000
  -2.6482    0.3563E+000
  -2.6407    0.3645E+000
  -2.6332    0.3737E+000
  -2.6257    0.3841E+000
  -2.6182    0.3956E+000
  -2.6107    0.4081E+000
  -2.6032    0.4215E+000
  -2.5956    0.4355E+000
  -2.5881    0.4501E+000
  -2.5806    0.4648E+000
  -2.5731    0.4797E+000
  -2.5656    0.4942E+000
  -2.5581    0.5083E+000
  -2.5506    0.5218E+000
  -2.5431    0.5344E+000
  -2.5356    0.5460E+000
  -2.5281    0.5565E+000
  -2.5206    0.5659E+000
  -2.5131    0.5741E+000
  -2.5056    0.5813E+000
  -2.4981    0.5876E+000
  -2.4906    0.5930E+000
  -2.4831    0.5976E+000
  -2.4756    0.6017E+000
  -2.4681    0.6054E+000
  -2.4606    0.6087E+000
  -2.4531    0.6117E+000
  -2.4456    0.6146E+000
  -2.4381    0.6171E+000
  -2.4306    0.6195E+000
  -2.4231    0.6214E+000
  -2.4156    0.6227E+000
  -2.4081    0.6234E+000
  -2.4006    0.6231E+000
  -2.3931    0.6217E+000
  -2.3856    0.6189E+000
  -2.3781    0.6147E+000
  -2.3706    0.6087E+000
  -2.3631    0.6009E+000
  -2.3556    0.5913E+000
  -2.3481    0.5799E+000
  -2.3406    0.5667E+000
  -2.3331    0.5518E+000
  -2.3256    0.5354E+000
  -2.3181    0.5177E+000
  -2.3106    0.4990E+000
  -2.3031    0.4796E+000
  -2.2956    0.4597E+000
  -2.2881    0.4396E+000
  -2.2806    0.4196E+000
  -2.2731    0.3998E+000
  -2.2656    0.3806E+000
  -2.2581    0.3620E+000
  -2.2506    0.3443E+000
  -2.2431    0.3274E+000
  -2.2356    0.3115E+000
  -2.2281    0.2966E+000
  -2.2206    0.2828E+000
  -2.2131    0.2699E+000
  -2.2056    0.2581E+000
  -2.1980    0.2474E+000
  -2.1905    0.2376E+000
  -2.1830    0.2288E+000
  -2.1755    0.2211E+000
  -2.1680    0.2144E+000
  -2.1605    0.2086E+000
  -2.1530    0.2039E+000
  -2.1455    0.2001E+000
  -2.1380    0.1972E+000
  -2.1305    0.1951E+000
  -2.1230    0.1938E+000
  -2.1155    0.1931E+000
  -2.1080    0.1929E+000
  -2.1005    0.1931E+000
  -2.0930    0.1936E+000
  -2.0855    0.1941E+000
  -2.0780    0.1946E+000
  -2.0705    0.1950E+000
  -2.0630    0.1950E+000
  -2.0555    0.1947E+000
  -2.0480    0.1940E+000
  -2.0405    0.1928E+000
  -2.0330    0.1911E+000
  -2.0255    0.1890E+000
  -2.0180    0.1865E+000
  -2.0105    0.1836E+000
  -2.0030    0.1804E+000
  -1.9955    0.1769E+000
  -1.9880    0.1732E+000
  -1.9805    0.1695E+000
  -1.9730    0.1656E+000
  -1.9655    0.1617E+000
  -1.9580    0.1578E+000
  -1.9505    0.1540E+000
  -1.9430    0.1502E+000
  -1.9355    0.1465E+000
  -1.9280    0.1430E+000
  -1.9205    0.1396E+000
  -1.9130    0.1364E+000
  -1.9055    0.1335E+000
  -1.8980    0.1309E+000
  -1.8905    0.1288E+000
  -1.8830    0.1271E+000
  -1.8755    0.1259E+000
  -1.8680    0.1255E+000
  -1.8605    0.1258E+000
  -1.8530    0.1269E+000
  -1.8455    0.1289E+000
  -1.8380    0.1319E+000
  -1.8305    0.1358E+000
  -1.8230    0.1406E+000
  -1.8155    0.1464E+000
  -1.8080    0.1529E+000
  -1.8005    0.1601E+000
  -1.7929    0.1679E+000
  -1.7854    0.1761E+000
  -1.7779    0.1845E+000
  -1.7704    0.1930E+000
  -1.7629    0.2013E+000
  -1.7554    0.2092E+000
  -1.7479    0.2167E+000
  -1.7404    0.2234E+000
  -1.7329    0.2294E+000
  -1.7254    0.2345E+000
  -1.7179    0.2386E+000
  -1.7104    0.2416E+000
  -1.7029    0.2435E+000
  -1.6954    0.2444E+000
  -1.6879    0.2443E+000
  -1.6804    0.2432E+000
  -1.6729    0.2412E+000
  -1.6654    0.2383E+000
  -1.6579    0.2348E+000
  -1.6504    0.2306E+000
  -1.6429    0.2259E+000
  -1.6354    0.2208E+000
  -1.6279    0.2155E+000
  -1.6204    0.2100E+000
  -1.6129    0.2044E+000
  -1.6054    0.1987E+000
  -1.5979    0.1931E+000
  -1.5904    0.1876E+000
  -1.5829    0.1822E+000
  -1.5754    0.1771E+000
  -1.5679    0.1721E+000
  -1.5604    0.1674E+000
  -1.5529    0.1630E+000
  -1.5454    0.1589E+000
  -1.5379    0.1552E+000
  -1.5304    0.1519E+000
  -1.5229    0.1491E+000
  -1.5154    0.1469E+000
  -1.5079    0.1453E+000
  -1.5004    0.1443E+000
  -1.4929    0.1440E+000
  -1.4854    0.1444E+000
  -1.4779    0.1454E+000
  -1.4704    0.1471E+000
  -1.4629    0.1493E+000
  -1.4554    0.1520E+000
  -1.4479    0.1551E+000
  -1.4404    0.1584E+000
  -1.4329    0.1619E+000
  -1.4254    0.1653E+000
  -1.4179    0.1685E+000
  -1.4104    0.1714E+000
  -1.4029    0.1739E+000
  -1.3953    0.1758E+000
  -1.3878    0.1772E+000
  -1.3803    0.1779E+000
  -1.3728    0.1779E+000
  -1.3653    0.1773E+000
  -1.3578    0.1759E+000
  -1.3503    0.1740E+000
  -1.3428    0.1714E+000
  -1.3353    0.1684E+000
  -1.3278    0.1649E+000
  -1.3203    0.1610E+000
  -1.3128    0.1569E+000
  -1.3053    0.1526E+000
  -1.2978    0.1482E+000
  -1.2903    0.1437E+000
  -1.2828    0.1394E+000
  -1.2753    0.1352E+000
  -1.2678    0.1311E+000
  -1.2603    0.1274E+000
  -1.2528    0.1239E+000
  -1.2453    0.1208E+000
  -1.2378    0.1180E+000
  -1.2303    0.1157E+000
  -1.2228    0.1137E+000
  -1.2153    0.1122E+000
  -1.2078    0.1111E+000
  -1.2003    0.1104E+000
  -1.1928    0.1102E+000
  -1.1853    0.1104E+000
  -1.1778    0.1110E+000
  -1.1703    0.1120E+000
  -1.1628    0.1133E+000
  -1.1553    0.1150E+000
  -1.1478    0.1169E+000
  -1.1403    0.1190E+000
  -1.1328    0.1212E+000
  -1.1253    0.1234E+000
  -1.1178    0.1254E+000
  -1.1103    0.1273E+000
  -1.1028    0.1288E+000
  -1.0953    0.1299E+000
  -1.0878    0.1304E+000
  -1.0803    0.1303E+000
  -1.0728    0.1294E+000
  -1.0653    0.1278E+000
  -1.0578    0.1254E+000
  -1.0503    0.1222E+000
  -1.0428    0.1183E+000
  -1.0353    0.1137E+000
  -1.0278    0.1086E+000
  -1.0203    0.1030E+000
  -1.0128    0.9715E-001
  -1.0053    0.9112E-001
  -0.9977    0.8508E-001
  -0.9902    0.7916E-001
  -0.9827    0.7350E-001
  -0.9752    0.6821E-001
  -0.9677    0.6337E-001
  -0.9602    0.5904E-001
  -0.9527    0.5524E-001
  -0.9452    0.5200E-001
  -0.9377    0.4928E-001
  -0.9302    0.4705E-001
  -0.9227    0.4525E-001
  -0.9152    0.4380E-001
  -0.9077    0.4264E-001
  -0.9002    0.4169E-001
  -0.8927    0.4087E-001
  -0.8852    0.4014E-001
  -0.8777    0.3943E-001
  -0.8702    0.3871E-001
  -0.8627    0.3796E-001
  -0.8552    0.3719E-001
  -0.8477    0.3640E-001
  -0.8402    0.3561E-001
  -0.8327    0.3486E-001
  -0.8252    0.3418E-001
  -0.8177    0.3360E-001
  -0.8102    0.3317E-001
  -0.8027    0.3292E-001
  -0.7952    0.3285E-001
  -0.7877    0.3298E-001
  -0.7802    0.3332E-001
  -0.7727    0.3384E-001
  -0.7652    0.3452E-001
  -0.7577    0.3534E-001
  -0.7502    0.3626E-001
  -0.7427    0.3724E-001
  -0.7352    0.3824E-001
  -0.7277    0.3922E-001
  -0.7202    0.4017E-001
  -0.7127    0.4106E-001
  -0.7052    0.4188E-001
  -0.6977    0.4263E-001
  -0.6902    0.4333E-001
  -0.6827    0.4398E-001
  -0.6752    0.4463E-001
  -0.6677    0.4529E-001
  -0.6602    0.4600E-001
  -0.6527    0.4678E-001
  -0.6452    0.4767E-001
  -0.6377    0.4868E-001
  -0.6302    0.4983E-001
  -0.6227    0.5111E-001
  -0.6152    0.5252E-001
  -0.6077    0.5405E-001
  -0.6002    0.5567E-001
  -0.5926    0.5735E-001
  -0.5851    0.5905E-001
  -0.5776    0.6072E-001
  -0.5701    0.6233E-001
  -0.5626    0.6382E-001
  -0.5551    0.6514E-001
  -0.5476    0.6625E-001
  -0.5401    0.6710E-001
  -0.5326    0.6764E-001
  -0.5251    0.6785E-001
  -0.5176    0.6769E-001
  -0.5101    0.6713E-001
  -0.5026    0.6617E-001
  -0.4951    0.6480E-001
  -0.4876    0.6303E-001
  -0.4801    0.6086E-001
  -0.4726    0.5833E-001
  -0.4651    0.5548E-001
  -0.4576    0.5235E-001
  -0.4501    0.4898E-001
  -0.4426    0.4545E-001
  -0.4351    0.4180E-001
  -0.4276    0.3811E-001
  -0.4201    0.3442E-001
  -0.4126    0.3081E-001
  -0.4051    0.2732E-001
  -0.3976    0.2399E-001
  -0.3901    0.2086E-001
  -0.3826    0.1797E-001
  -0.3751    0.1532E-001
  -0.3676    0.1294E-001
  -0.3601    0.1081E-001
  -0.3526    0.8944E-002
  -0.3451    0.7324E-002
  -0.3376    0.5937E-002
  -0.3301    0.4762E-002
  -0.3226    0.3781E-002
  -0.3151    0.2970E-002
  -0.3076    0.2309E-002
  -0.3001    0.1777E-002
  -0.2926    0.1352E-002
  -0.2851    0.1019E-002
  -0.2776    0.7593E-003
  -0.2701    0.5600E-003
  -0.2626    0.4086E-003
  -0.2551    0.2950E-003
  -0.2476    0.2107E-003
  -0.2401    0.1489E-003
  -0.2326    0.1041E-003
  -0.2251    0.7207E-004
  -0.2176    0.4938E-004
  -0.2101    0.3353E-004
  -0.2026    0.2263E-004
  -0.1950    0.1527E-004
  -0.1875    0.1047E-004
  -0.1800    0.7535E-005
  -0.1725    0.6041E-005
  -0.1650    0.5761E-005
  -0.1575    0.6661E-005
  -0.1500    0.8894E-005
  -0.1425    0.1281E-004
  -0.1350    0.1903E-004
  -0.1275    0.2843E-004
  -0.1200    0.4233E-004
  -0.1125    0.6251E-004
  -0.1050    0.9143E-004
  -0.0975    0.1324E-003
  -0.0900    0.1896E-003
  -0.0825    0.2686E-003
  -0.0750    0.3765E-003
  -0.0675    0.5221E-003
  -0.0600    0.7164E-003
  -0.0525    0.9724E-003
  -0.0450    0.1306E-002
  -0.0375    0.1735E-002
  -0.0300    0.2281E-002
  -0.0225    0.2968E-002
  -0.0150    0.3820E-002
  -0.0075    0.4865E-002
   0.0000    0.6133E-002
   0.0075    0.7650E-002
   0.0150    0.9444E-002
   0.0225    0.1154E-001
   0.0300    0.1396E-001
   0.0375    0.1671E-001
   0.0450    0.1980E-001
   0.0525    0.2323E-001
   0.0600    0.2698E-001
   0.0675    0.3103E-001
   0.0750    0.3534E-001
   0.0825    0.3987E-001
   0.0900    0.4455E-001
   0.0975    0.4931E-001
   0.1050    0.5407E-001
   0.1125    0.5876E-001
   0.1200    0.6329E-001
   0.1275    0.6758E-001
   0.1350    0.7154E-001
   0.1425    0.7512E-001
   0.1500    0.7825E-001
   0.1575    0.8089E-001
   0.1650    0.8301E-001
   0.1725    0.8458E-001
   0.1800    0.8562E-001
   0.1875    0.8614E-001
   0.1950    0.8617E-001
   0.2026    0.8574E-001
   0.2101    0.8491E-001
   0.2176    0.8373E-001
   0.2251    0.8226E-001
   0.2326    0.8056E-001
   0.2401    0.7869E-001
   0.2476    0.7669E-001
   0.2551    0.7462E-001
   0.2626    0.7252E-001
   0.2701    0.7044E-001
   0.2776    0.6840E-001
   0.2851    0.6643E-001
   0.2926    0.6455E-001
   0.3001    0.6278E-001
   0.3076    0.6113E-001
   0.3151    0.5961E-001
   0.3226    0.5822E-001
   0.3301    0.5696E-001
   0.3376    0.5582E-001
   0.3451    0.5480E-001
   0.3526    0.5389E-001
   0.3601    0.5306E-001
   0.3676    0.5231E-001
   0.3751    0.5163E-001
   0.3826    0.5099E-001
   0.3901    0.5038E-001
   0.3976    0.4980E-001
   0.4051    0.4924E-001
   0.4126    0.4871E-001
   0.4201    0.4819E-001
   0.4276    0.4770E-001
   0.4351    0.4724E-001
   0.4426    0.4683E-001
   0.4501    0.4647E-001
   0.4576    0.4617E-001
   0.4651    0.4593E-001
   0.4726    0.4576E-001
   0.4801    0.4565E-001
   0.4876    0.4559E-001
   0.4951    0.4559E-001
   0.5026    0.4562E-001
   0.5101    0.4569E-001
   0.5176    0.4579E-001
   0.5251    0.4591E-001
   0.5326    0.4607E-001
   0.5401    0.4628E-001
   0.5476    0.4656E-001
   0.5551    0.4694E-001
   0.5626    0.4747E-001
   0.5701    0.4819E-001
   0.5776    0.4917E-001
   0.5851    0.5047E-001
   0.5926    0.5216E-001
   0.6002    0.5432E-001
   0.6077    0.5702E-001
   0.6152    0.6035E-001
   0.6227    0.6437E-001
   0.6302    0.6914E-001
   0.6377    0.7474E-001
   0.6452    0.8121E-001
   0.6527    0.8857E-001
   0.6602    0.9684E-001
   0.6677    0.1060E+000
   0.6752    0.1160E+000
   0.6827    0.1268E+000
   0.6902    0.1383E+000
   0.6977    0.1502E+000
   0.7052    0.1626E+000
   0.7127    0.1751E+000
   0.7202    0.1874E+000
   0.7277    0.1994E+000
   0.7352    0.2108E+000
   0.7427    0.2213E+000
   0.7502    0.2307E+000
   0.7577    0.2386E+000
   0.7652    0.2450E+000
   0.7727    0.2496E+000
   0.7802    0.2523E+000
   0.7877    0.2532E+000
   0.7952    0.2521E+000
   0.8027    0.2491E+000
   0.8102    0.2444E+000
   0.8177    0.2382E+000
   0.8252    0.2306E+000
   0.8327    0.2219E+000
   0.8402    0.2123E+000
   0.8477    0.2021E+000
   0.8552    0.1914E+000
   0.8627    0.1807E+000
   0.8702    0.1699E+000
   0.8777    0.1593E+000
   0.8852    0.1491E+000
   0.8927    0.1393E+000
   0.9002    0.1299E+000
   0.9077    0.1210E+000
   0.9152    0.1127E+000
   0.9227    0.1048E+000
   0.9302    0.9740E-001
   0.9377    0.9038E-001
   0.9452    0.8372E-001
   0.9527    0.7739E-001
   0.9602    0.7133E-001
   0.9677    0.6552E-001
   0.9752    0.5996E-001
   0.9827    0.5462E-001
   0.9902    0.4953E-001
   0.9977    0.4469E-001
   1.0053    0.4014E-001
   1.0128    0.3589E-001
   1.0203    0.3199E-001
   1.0278    0.2848E-001
   1.0353    0.2540E-001
   1.0428    0.2279E-001
   1.0503    0.2071E-001
   1.0578    0.1918E-001
   1.0653    0.1827E-001
   1.0728    0.1802E-001
   1.0803    0.1849E-001
   1.0878    0.1972E-001
   1.0953    0.2178E-001
   1.1028    0.2472E-001
   1.1103    0.2860E-001
   1.1178    0.3349E-001
   1.1253    0.3943E-001
   1.1328    0.4649E-001
   1.1403    0.5471E-001
   1.1478    0.6414E-001
   1.1553    0.7481E-001
   1.1628    0.8674E-001
   1.1703    0.9993E-001
   1.1778    0.1144E+000
   1.1853    0.1301E+000
   1.1928    0.1470E+000
   1.2003    0.1650E+000
   1.2078    0.1840E+000
   1.2153    0.2040E+000
   1.2228    0.2249E+000
   1.2303    0.2464E+000
   1.2378    0.2684E+000
   1.2453    0.2907E+000
   1.2528    0.3132E+000
   1.2603    0.3356E+000
   1.2678    0.3577E+000
   1.2753    0.3791E+000
   1.2828    0.3998E+000
   1.2903    0.4195E+000
   1.2978    0.4378E+000
   1.3053    0.4547E+000
   1.3128    0.4700E+000
   1.3203    0.4835E+000
   1.3278    0.4951E+000
   1.3353    0.5048E+000
   1.3428    0.5126E+000
   1.3503    0.5185E+000
   1.3578    0.5228E+000
   1.3653    0.5255E+000
   1.3728    0.5268E+000
   1.3803    0.5271E+000
   1.3878    0.5264E+000
   1.3953    0.5252E+000
   1.4029    0.5236E+000
   1.4104    0.5219E+000
   1.4179    0.5202E+000
   1.4254    0.5188E+000
   1.4329    0.5177E+000
   1.4404    0.5171E+000
   1.4479    0.5170E+000
   1.4554    0.5174E+000
   1.4629    0.5182E+000
   1.4704    0.5193E+000
   1.4779    0.5206E+000
   1.4854    0.5220E+000
   1.4929    0.5234E+000
   1.5004    0.5246E+000
   1.5079    0.5255E+000
   1.5154    0.5258E+000
   1.5229    0.5256E+000
   1.5304    0.5248E+000
   1.5379    0.5233E+000
   1.5454    0.5210E+000
   1.5529    0.5179E+000
   1.5604    0.5142E+000
   1.5679    0.5099E+000
   1.5754    0.5050E+000
   1.5829    0.4996E+000
   1.5904    0.4940E+000
   1.5979    0.4882E+000
   1.6054    0.4824E+000
   1.6129    0.4767E+000
   1.6204    0.4712E+000
   1.6279    0.4661E+000
   1.6354    0.4615E+000
   1.6429    0.4573E+000
   1.6504    0.4537E+000
   1.6579    0.4506E+000
   1.6654    0.4479E+000
   1.6729    0.4457E+000
   1.6804    0.4437E+000
   1.6879    0.4419E+000
   1.6954    0.4400E+000
   1.7029    0.4379E+000
   1.7104    0.4354E+000
   1.7179    0.4324E+000
   1.7254    0.4288E+000
   1.7329    0.4243E+000
   1.7404    0.4190E+000
   1.7479    0.4127E+000
   1.7554    0.4055E+000
   1.7629    0.3974E+000
   1.7704    0.3885E+000
   1.7779    0.3789E+000
   1.7854    0.3688E+000
   1.7929    0.3583E+000
   1.8005    0.3477E+000
   1.8080    0.3372E+000
   1.8155    0.3270E+000
   1.8230    0.3173E+000
   1.8305    0.3084E+000
   1.8380    0.3004E+000
   1.8455    0.2935E+000
   1.8530    0.2877E+000
   1.8605    0.2833E+000
   1.8680    0.2802E+000
   1.8755    0.2784E+000
   1.8830    0.2779E+000
   1.8905    0.2786E+000
   1.8980    0.2805E+000
   1.9055    0.2833E+000
   1.9130    0.2868E+000
   1.9205    0.2909E+000
   1.9280    0.2954E+000
   1.9355    0.3001E+000
   1.9430    0.3047E+000
   1.9505    0.3091E+000
   1.9580    0.3132E+000
   1.9655    0.3167E+000
   1.9730    0.3196E+000
   1.9805    0.3218E+000
   1.9880    0.3233E+000
   1.9955    0.3242E+000
   2.0030    0.3244E+000
   2.0105    0.3240E+000
   2.0180    0.3230E+000
   2.0255    0.3216E+000
   2.0330    0.3198E+000
   2.0405    0.3176E+000
   2.0480    0.3152E+000
   2.0555    0.3126E+000
   2.0630    0.3097E+000
   2.0705    0.3067E+000
   2.0780    0.3035E+000
   2.0855    0.3001E+000
   2.0930    0.2964E+000
   2.1005    0.2926E+000
   2.1080    0.2886E+000
   2.1155    0.2844E+000
   2.1230    0.2802E+000
   2.1305    0.2759E+000
   2.1380    0.2718E+000
   2.1455    0.2679E+000
   2.1530    0.2644E+000
   2.1605    0.2614E+000
   2.1680    0.2592E+000
   2.1755    0.2577E+000
   2.1830    0.2571E+000
   2.1905    0.2576E+000
   2.1980    0.2591E+000
   2.2056    0.2616E+000
   2.2131    0.2651E+000
   2.2206    0.2696E+000
   2.2281    0.2748E+000
   2.2356    0.2806E+000
   2.2431    0.2870E+000
   2.2506    0.2936E+000
   2.2581    0.3002E+000
   2.2656    0.3068E+000
   2.2731    0.3130E+000
   2.2806    0.3188E+000
   2.2881    0.3240E+000
   2.2956    0.3284E+000
   2.3031    0.3321E+000
   2.3106    0.3348E+000
   2.3181    0.3367E+000
   2.3256    0.3377E+000
   2.3331    0.3379E+000
   2.3406    0.3373E+000
   2.3481    0.3360E+000
   2.3556    0.3341E+000
   2.3631    0.3317E+000
   2.3706    0.3290E+000
   2.3781    0.3260E+000
   2.3856    0.3230E+000
   2.3931    0.3201E+000
   2.4006    0.3174E+000
   2.4081    0.3151E+000
   2.4156    0.3131E+000
   2.4231    0.3116E+000
   2.4306    0.3107E+000
   2.4381    0.3103E+000
   2.4456    0.3104E+000
   2.4531    0.3111E+000
   2.4606    0.3121E+000
   2.4681    0.3135E+000
   2.4756    0.3151E+000
   2.4831    0.3169E+000
   2.4906    0.3187E+000
   2.4981    0.3205E+000
   2.5056    0.3222E+000
   2.5131    0.3237E+000
   2.5206    0.3250E+000
   2.5281    0.3261E+000
   2.5356    0.3270E+000
   2.5431    0.3277E+000
   2.5506    0.3284E+000
   2.5581    0.3289E+000
   2.5656    0.3295E+000
   2.5731    0.3301E+000
   2.5806    0.3308E+000
   2.5881    0.3317E+000
   2.5956    0.3328E+000
   2.6032    0.3340E+000
   2.6107    0.3354E+000
   2.6182    0.3371E+000
   2.6257    0.3389E+000
   2.6332    0.3408E+000
   2.6407    0.3429E+000
   2.6482    0.3451E+000
   2.6557    0.3473E+000
   2.6632    0.3495E+000
   2.6707    0.3517E+000
   2.6782    0.3539E+000
   2.6857    0.3559E+000
   2.6932    0.3578E+000
   2.7007    0.3595E+000
   2.7082    0.3609E+000
   2.7157    0.3621E+000
   2.7232    0.3630E+000
   2.7307    0.3636E+000
   2.7382    0.3639E+000
   2.7457    0.3639E+000
   2.7532    0.3637E+000
   2.7607    0.3633E+000
   2.7682    0.3627E+000
   2.7757    0.3621E+000
   2.7832    0.3615E+000
   2.7907    0.3609E+000
   2.7982    0.3604E+000
   2.8057    0.3600E+000
   2.8132    0.3597E+000
   2.8207    0.3596E+000
   2.8282    0.3596E+000
   2.8357    0.3596E+000
   2.8432    0.3596E+000
   2.8507    0.3595E+000
   2.8582    0.3592E+000
   2.8657    0.3586E+000
   2.8732    0.3576E+000
   2.8807    0.3561E+000
   2.8882    0.3541E+000
   2.8957    0.3513E+000
   2.9032    0.3479E+000
   2.9107    0.3436E+000
   2.9182    0.3386E+000
   2.9257    0.3327E+000
   2.9332    0.3261E+000
   2.9407    0.3187E+000
   2.9482    0.3107E+000
   2.9557    0.3020E+000
   2.9632    0.2927E+000
   2.9707    0.2831E+000
   2.9782    0.2731E+000
   2.9857    0.2628E+000
   2.9932    0.2524E+000
   3.0008    0.2420E+000
   3.0083    0.2316E+000
   3.0158    0.2213E+000
   3.0233    0.2111E+000
   3.0308    0.2012E+000
   3.0383    0.1915E+000
   3.0458    0.1820E+000
   3.0533    0.1728E+000
   3.0608    0.1639E+000
   3.0683    0.1553E+000
   3.0758    0.1469E+000
   3.0833    0.1388E+000
   3.0908    0.1310E+000
   3.0983    0.1236E+000
   3.1058    0.1166E+000
   3.1133    0.1099E+000
   3.1208    0.1037E+000
   3.1283    0.9807E-001
   3.1358    0.9294E-001
   3.1433    0.8840E-001
   3.1508    0.8448E-001
   3.1583    0.8120E-001
   3.1658    0.7858E-001
   3.1733    0.7661E-001
   3.1808    0.7528E-001
   3.1883    0.7456E-001
   3.1958    0.7441E-001
   3.2033    0.7481E-001
   3.2108    0.7570E-001
   3.2183    0.7705E-001
   3.2258    0.7883E-001
   3.2333    0.8101E-001
   3.2408    0.8358E-001
   3.2483    0.8654E-001
   3.2558    0.8991E-001
   3.2633    0.9370E-001
   3.2708    0.9797E-001
   3.2783    0.1027E+000
   3.2858    0.1080E+000
   3.2933    0.1139E+000
   3.3008    0.1204E+000
   3.3083    0.1275E+000
   3.3158    0.1352E+000
   3.3233    0.1435E+000
   3.3308    0.1523E+000
   3.3383    0.1614E+000
   3.3458    0.1709E+000
   3.3533    0.1805E+000
   3.3608    0.1901E+000
   3.3683    0.1995E+000
   3.3758    0.2086E+000
   3.3833    0.2173E+000
   3.3908    0.2253E+000
   3.3983    0.2327E+000
   3.4059    0.2392E+000
   3.4134    0.2449E+000
   3.4209    0.2497E+000
   3.4284    0.2536E+000
   3.4359    0.2567E+000
   3.4434    0.2590E+000
   3.4509    0.2605E+000
   3.4584    0.2614E+000
   3.4659    0.2618E+000
   3.4734    0.2617E+000
   3.4809    0.2612E+000
   3.4884    0.2603E+000
   3.4959    0.2591E+000
   3.5034    0.2577E+000
   3.5109    0.2561E+000
   3.5184    0.2542E+000
   3.5259    0.2521E+000
   3.5334    0.2497E+000
   3.5409    0.2471E+000
   3.5484    0.2442E+000
   3.5559    0.2412E+000
   3.5634    0.2379E+000
   3.5709    0.2344E+000
   3.5784    0.2309E+000
   3.5859    0.2273E+000
   3.5934    0.2237E+000
   3.6009    0.2203E+000
   3.6084    0.2171E+000
   3.6159    0.2143E+000
   3.6234    0.2118E+000
   3.6309    0.2099E+000
   3.6384    0.2085E+000
   3.6459    0.2078E+000
   3.6534    0.2077E+000
   3.6609    0.2083E+000
   3.6684    0.2096E+000
   3.6759    0.2117E+000
   3.6834    0.2144E+000
   3.6909    0.2178E+000
   3.6984    0.2218E+000
   3.7059    0.2264E+000
   3.7134    0.2315E+000
   3.7209    0.2370E+000
   3.7284    0.2429E+000
   3.7359    0.2490E+000
   3.7434    0.2553E+000
   3.7509    0.2616E+000
   3.7584    0.2679E+000
   3.7659    0.2739E+000
   3.7734    0.2795E+000
   3.7809    0.2847E+000
   3.7884    0.2893E+000
   3.7959    0.2932E+000
   3.8035    0.2963E+000
   3.8110    0.2986E+000
   3.8185    0.3000E+000
   3.8260    0.3006E+000
   3.8335    0.3003E+000
   3.8410    0.2993E+000
   3.8485    0.2977E+000
   3.8560    0.2956E+000
   3.8635    0.2931E+000
   3.8710    0.2904E+000
   3.8785    0.2876E+000
   3.8860    0.2849E+000
   3.8935    0.2824E+000
   3.9010    0.2802E+000
   3.9085    0.2784E+000
   3.9160    0.2770E+000
   3.9235    0.2760E+000
   3.9310    0.2754E+000
   3.9385    0.2751E+000
   3.9460    0.2752E+000
   3.9535    0.2755E+000
   3.9610    0.2760E+000
   3.9685    0.2766E+000
   3.9760    0.2771E+000
   3.9835    0.2775E+000
   3.9910    0.2778E+000
   3.9985    0.2778E+000
   4.0060    0.2775E+000
   4.0135    0.2769E+000
   4.0210    0.2758E+000
   4.0285    0.2742E+000
   4.0360    0.2721E+000
   4.0435    0.2695E+000
   4.0510    0.2664E+000
   4.0585    0.2628E+000
   4.0660    0.2587E+000
   4.0735    0.2541E+000
   4.0810    0.2490E+000
   4.0885    0.2436E+000
   4.0960    0.2379E+000
   4.1035    0.2320E+000
   4.1110    0.2259E+000
   4.1185    0.2198E+000
   4.1260    0.2137E+000
   4.1335    0.2078E+000
   4.1410    0.2021E+000
   4.1485    0.1967E+000
   4.1560    0.1918E+000
   4.1635    0.1873E+000
   4.1710    0.1835E+000
   4.1785    0.1803E+000
   4.1860    0.1779E+000
   4.1935    0.1762E+000
   4.2011    0.1753E+000
   4.2086    0.1752E+000
   4.2161    0.1760E+000
   4.2236    0.1774E+000
   4.2311    0.1796E+000
   4.2386    0.1824E+000
   4.2461    0.1857E+000
   4.2536    0.1894E+000
   4.2611    0.1935E+000
   4.2686    0.1977E+000
   4.2761    0.2019E+000
   4.2836    0.2061E+000
   4.2911    0.2102E+000
   4.2986    0.2139E+000
   4.3061    0.2172E+000
   4.3136    0.2202E+000
   4.3211    0.2226E+000
   4.3286    0.2245E+000
   4.3361    0.2259E+000
   4.3436    0.2268E+000
   4.3511    0.2271E+000
   4.3586    0.2270E+000
   4.3661    0.2265E+000
   4.3736    0.2256E+000
   4.3811    0.2243E+000
   4.3886    0.2227E+000
   4.3961    0.2209E+000
   4.4036    0.2189E+000
   4.4111    0.2167E+000
   4.4186    0.2143E+000
   4.4261    0.2118E+000
   4.4336    0.2091E+000
   4.4411    0.2062E+000
   4.4486    0.2032E+000
   4.4561    0.2000E+000
   4.4636    0.1965E+000
   4.4711    0.1929E+000
   4.4786    0.1890E+000
   4.4861    0.1850E+000
   4.4936    0.1807E+000
   4.5011    0.1763E+000
   4.5086    0.1717E+000
   4.5161    0.1670E+000
   4.5236    0.1622E+000
   4.5311    0.1574E+000
   4.5386    0.1527E+000
   4.5461    0.1480E+000
   4.5536    0.1434E+000
   4.5611    0.1390E+000
   4.5686    0.1347E+000
   4.5761    0.1307E+000
   4.5836    0.1268E+000
   4.5911    0.1232E+000
   4.5986    0.1199E+000
   4.6062    0.1167E+000
   4.6137    0.1137E+000
   4.6212    0.1109E+000
   4.6287    0.1083E+000
   4.6362    0.1059E+000
   4.6437    0.1036E+000
   4.6512    0.1015E+000
   4.6587    0.9961E-001
   4.6662    0.9785E-001
   4.6737    0.9626E-001
   4.6812    0.9485E-001
   4.6887    0.9361E-001
   4.6962    0.9255E-001
   4.7037    0.9164E-001
   4.7112    0.9088E-001
   4.7187    0.9023E-001
   4.7262    0.8968E-001
   4.7337    0.8920E-001
   4.7412    0.8875E-001
   4.7487    0.8830E-001
   4.7562    0.8785E-001
   4.7637    0.8736E-001
   4.7712    0.8685E-001
   4.7787    0.8631E-001
   4.7862    0.8576E-001
   4.7937    0.8522E-001
   4.8012    0.8473E-001
   4.8087    0.8433E-001
   4.8162    0.8406E-001
   4.8237    0.8395E-001
   4.8312    0.8405E-001
   4.8387    0.8438E-001
   4.8462    0.8498E-001
   4.8537    0.8586E-001
   4.8612    0.8704E-001
   4.8687    0.8854E-001
   4.8762    0.9037E-001
   4.8837    0.9255E-001
   4.8912    0.9510E-001
   4.8987    0.9807E-001
   4.9062    0.1015E+000
   4.9137    0.1054E+000
   4.9212    0.1099E+000
   4.9287    0.1150E+000
   4.9362    0.1207E+000
   4.9437    0.1272E+000
   4.9512    0.1345E+000
   4.9587    0.1427E+000
   4.9662    0.1516E+000
   4.9737    0.1613E+000
   4.9812    0.1718E+000
   4.9887    0.1829E+000
   4.9962    0.1945E+000
   5.0038    0.2065E+000
   5.0113    0.2186E+000
   5.0188    0.2307E+000
   5.0263    0.2426E+000
   5.0338    0.2540E+000
   5.0413    0.2646E+000
   5.0488    0.2744E+000
   5.0563    0.2830E+000
   5.0638    0.2903E+000
   5.0713    0.2962E+000
   5.0788    0.3006E+000
   5.0863    0.3034E+000
   5.0938    0.3047E+000
   5.1013    0.3044E+000
   5.1088    0.3026E+000
   5.1163    0.2994E+000
   5.1238    0.2950E+000
   5.1313    0.2895E+000
   5.1388    0.2832E+000
   5.1463    0.2761E+000
   5.1538    0.2685E+000
   5.1613    0.2607E+000
   5.1688    0.2528E+000
   5.1763    0.2451E+000
   5.1838    0.2376E+000
   5.1913    0.2306E+000
   5.1988    0.2242E+000
   5.2063    0.2184E+000
   5.2138    0.2134E+000
   5.2213    0.2092E+000
   5.2288    0.2057E+000
   5.2363    0.2030E+000
   5.2438    0.2010E+000
   5.2513    0.1996E+000
   5.2588    0.1987E+000
   5.2663    0.1983E+000
   5.2738    0.1982E+000
   5.2813    0.1983E+000
   5.2888    0.1985E+000
   5.2963    0.1989E+000
   5.3038    0.1992E+000
   5.3113    0.1995E+000
   5.3188    0.1999E+000
   5.3263    0.2002E+000
   5.3338    0.2005E+000
   5.3413    0.2009E+000
   5.3488    0.2014E+000
   5.3563    0.2021E+000
   5.3638    0.2030E+000
   5.3713    0.2043E+000
   5.3788    0.2058E+000
   5.3863    0.2078E+000
   5.3938    0.2101E+000
   5.4014    0.2127E+000
   5.4089    0.2158E+000
   5.4164    0.2191E+000
   5.4239    0.2227E+000
   5.4314    0.2265E+000
   5.4389    0.2304E+000
   5.4464    0.2344E+000
   5.4539    0.2385E+000
   5.4614    0.2426E+000
   5.4689    0.2465E+000
   5.4764    0.2504E+000
   5.4839    0.2542E+000
   5.4914    0.2577E+000
   5.4989    0.2611E+000
   5.5064    0.2641E+000
   5.5139    0.2669E+000
   5.5214    0.2694E+000
   5.5289    0.2716E+000
   5.5364    0.2733E+000
   5.5439    0.2746E+000
   5.5514    0.2754E+000
   5.5589    0.2757E+000
   5.5664    0.2754E+000
   5.5739    0.2745E+000
   5.5814    0.2729E+000
   5.5889    0.2706E+000
   5.5964    0.2676E+000
   5.6039    0.2638E+000
   5.6114    0.2594E+000
   5.6189    0.2543E+000
   5.6264    0.2486E+000
   5.6339    0.2423E+000
   5.6414    0.2356E+000
   5.6489    0.2285E+000
   5.6564    0.2211E+000
   5.6639    0.2137E+000
   5.6714    0.2062E+000
   5.6789    0.1988E+000
   5.6864    0.1917E+000
   5.6939    0.1848E+000
   5.7014    0.1783E+000
   5.7089    0.1722E+000
   5.7164    0.1665E+000
   5.7239    0.1612E+000
   5.7314    0.1563E+000
   5.7389    0.1517E+000
   5.7464    0.1474E+000
   5.7539    0.1433E+000
   5.7614    0.1394E+000
   5.7689    0.1355E+000
   5.7764    0.1316E+000
   5.7839    0.1277E+000
   5.7914    0.1237E+000
   5.7989    0.1197E+000
   5.8065    0.1155E+000
   5.8140    0.1112E+000
   5.8215    0.1069E+000
   5.8290    0.1026E+000
   5.8365    0.9829E-001
   5.8440    0.9405E-001
   5.8515    0.8993E-001
   5.8590    0.8598E-001
   5.8665    0.8226E-001
   5.8740    0.7880E-001
   5.8815    0.7564E-001
   5.8890    0.7282E-001
   5.8965    0.7036E-001
   5.9040    0.6827E-001
   5.9115    0.6656E-001
   5.9190    0.6524E-001
   5.9265    0.6429E-001
   5.9340    0.6371E-001
   5.9415    0.6348E-001
   5.9490    0.6358E-001
   5.9565    0.6396E-001
   5.9640    0.6460E-001
   5.9715    0.6545E-001
   5.9790    0.6646E-001
   5.9865    0.6758E-001
   5.9940    0.6876E-001
   6.0015    0.6994E-001
   6.0090    0.7105E-001
   6.0165    0.7205E-001
   6.0240    0.7288E-001
   6.0315    0.7349E-001
   6.0390    0.7383E-001
   6.0465    0.7389E-001
   6.0540    0.7364E-001
   6.0615    0.7308E-001
   6.0690    0.7222E-001
   6.0765    0.7110E-001
   6.0840    0.6976E-001
   6.0915    0.6827E-001
   6.0990    0.6672E-001
   6.1065    0.6519E-001
   6.1140    0.6380E-001
   6.1215    0.6266E-001
   6.1290    0.6189E-001
   6.1365    0.6160E-001
   6.1440    0.6191E-001
   6.1515    0.6291E-001
   6.1590    0.6467E-001
   6.1665    0.6725E-001
   6.1740    0.7067E-001
   6.1815    0.7493E-001
   6.1890    0.8000E-001
   6.1965    0.8580E-001
   6.2041    0.9225E-001
   6.2116    0.9923E-001
   6.2191    0.1066E+000
   6.2266    0.1141E+000
   6.2341    0.1217E+000
   6.2416    0.1292E+000
   6.2491    0.1364E+000
   6.2566    0.1431E+000
   6.2641    0.1492E+000
   6.2716    0.1545E+000
   6.2791    0.1591E+000
   6.2866    0.1628E+000
   6.2941    0.1655E+000
   6.3016    0.1674E+000
   6.3091    0.1683E+000
   6.3166    0.1684E+000
   6.3241    0.1677E+000
   6.3316    0.1664E+000
   6.3391    0.1644E+000
   6.3466    0.1620E+000
   6.3541    0.1592E+000
   6.3616    0.1561E+000
   6.3691    0.1529E+000
   6.3766    0.1495E+000
   6.3841    0.1461E+000
   6.3916    0.1427E+000
   6.3991    0.1395E+000
   6.4066    0.1363E+000
   6.4141    0.1334E+000
   6.4216    0.1306E+000
   6.4291    0.1280E+000
   6.4366    0.1257E+000
   6.4441    0.1236E+000
   6.4516    0.1217E+000
   6.4591    0.1200E+000
   6.4666    0.1186E+000
   6.4741    0.1175E+000
   6.4816    0.1165E+000
   6.4891    0.1158E+000
   6.4966    0.1153E+000
   6.5041    0.1150E+000
   6.5116    0.1151E+000
   6.5191    0.1154E+000
   6.5266    0.1160E+000
   6.5341    0.1170E+000
   6.5416    0.1184E+000
   6.5491    0.1203E+000
   6.5566    0.1227E+000
   6.5641    0.1257E+000
   6.5716    0.1295E+000
   6.5791    0.1339E+000
   6.5866    0.1392E+000
   6.5941    0.1453E+000
   6.6017    0.1522E+000
   6.6092    0.1601E+000
   6.6167    0.1687E+000
   6.6242    0.1782E+000
   6.6317    0.1885E+000
   6.6392    0.1994E+000
   6.6467    0.2109E+000
   6.6542    0.2228E+000
   6.6617    0.2350E+000
   6.6692    0.2472E+000
   6.6767    0.2594E+000
   6.6842    0.2713E+000
   6.6917    0.2827E+000
   6.6992    0.2933E+000
   6.7067    0.3031E+000
   6.7142    0.3118E+000
   6.7217    0.3193E+000
   6.7292    0.3253E+000
   6.7367    0.3299E+000
   6.7442    0.3328E+000
   6.7517    0.3341E+000
   6.7592    0.3338E+000
   6.7667    0.3318E+000
   6.7742    0.3282E+000
   6.7817    0.3231E+000
   6.7892    0.3166E+000
   6.7967    0.3088E+000
   6.8042    0.3000E+000
   6.8117    0.2902E+000
   6.8192    0.2796E+000
   6.8267    0.2686E+000
   6.8342    0.2571E+000
   6.8417    0.2455E+000
   6.8492    0.2340E+000
   6.8567    0.2226E+000
   6.8642    0.2116E+000
   6.8717    0.2011E+000
   6.8792    0.1912E+000
   6.8867    0.1820E+000
   6.8942    0.1735E+000
   6.9017    0.1658E+000
   6.9092    0.1589E+000
   6.9167    0.1528E+000
   6.9242    0.1474E+000
   6.9317    0.1429E+000
   6.9392    0.1390E+000
   6.9467    0.1359E+000
   6.9542    0.1333E+000
   6.9617    0.1314E+000
   6.9692    0.1300E+000
   6.9767    0.1291E+000
   6.9842    0.1286E+000
   6.9917    0.1286E+000
   6.9992    0.1290E+000
   7.0068    0.1298E+000
   7.0143    0.1309E+000
   7.0218    0.1323E+000
   7.0293    0.1341E+000
   7.0368    0.1361E+000
   7.0443    0.1384E+000
   7.0518    0.1409E+000
   7.0593    0.1436E+000
   7.0668    0.1464E+000
   7.0743    0.1494E+000
   7.0818    0.1525E+000
   7.0893    0.1555E+000
   7.0968    0.1585E+000
   7.1043    0.1613E+000
   7.1118    0.1639E+000
   7.1193    0.1662E+000
   7.1268    0.1681E+000
   7.1343    0.1694E+000
   7.1418    0.1703E+000
   7.1493    0.1705E+000
   7.1568    0.1700E+000
   7.1643    0.1689E+000
   7.1718    0.1672E+000
   7.1793    0.1648E+000
   7.1868    0.1618E+000
   7.1943    0.1583E+000
   7.2018    0.1543E+000
   7.2093    0.1501E+000
   7.2168    0.1456E+000
   7.2243    0.1411E+000
   7.2318    0.1365E+000
   7.2393    0.1321E+000
   7.2468    0.1278E+000
   7.2543    0.1238E+000
   7.2618    0.1202E+000
   7.2693    0.1168E+000
   7.2768    0.1138E+000
   7.2843    0.1112E+000
   7.2918    0.1088E+000
   7.2993    0.1067E+000
   7.3068    0.1048E+000
   7.3143    0.1030E+000
   7.3218    0.1014E+000
   7.3293    0.9983E-001
   7.3368    0.9827E-001
   7.3443    0.9669E-001
   7.3518    0.9507E-001
   7.3593    0.9339E-001
   7.3668    0.9165E-001
   7.3743    0.8985E-001
   7.3818    0.8800E-001
   7.3893    0.8613E-001
   7.3968    0.8424E-001
   7.4044    0.8236E-001
   7.4119    0.8051E-001
   7.4194    0.7872E-001
   7.4269    0.7699E-001
   7.4344    0.7535E-001
   7.4419    0.7380E-001
   7.4494    0.7237E-001
   7.4569    0.7105E-001
   7.4644    0.6985E-001
   7.4719    0.6877E-001
   7.4794    0.6781E-001
   7.4869    0.6697E-001
   7.4944    0.6624E-001
   7.5019    0.6562E-001
   7.5094    0.6511E-001
   7.5169    0.6470E-001
   7.5244    0.6438E-001
   7.5319    0.6416E-001
   7.5394    0.6404E-001
   7.5469    0.6400E-001
   7.5544    0.6406E-001
   7.5619    0.6421E-001
   7.5694    0.6447E-001
   7.5769    0.6482E-001
   7.5844    0.6528E-001
   7.5919    0.6585E-001
   7.5994    0.6652E-001
   7.6069    0.6731E-001
   7.6144    0.6821E-001
   7.6219    0.6922E-001
   7.6294    0.7033E-001
   7.6369    0.7153E-001
   7.6444    0.7282E-001
   7.6519    0.7418E-001
   7.6594    0.7558E-001
   7.6669    0.7700E-001
   7.6744    0.7841E-001
   7.6819    0.7976E-001
   7.6894    0.8103E-001
   7.6969    0.8216E-001
   7.7044    0.8311E-001
   7.7119    0.8382E-001
   7.7194    0.8424E-001
   7.7269    0.8433E-001
   7.7344    0.8405E-001
   7.7419    0.8336E-001
   7.7494    0.8225E-001
   7.7569    0.8071E-001
   7.7644    0.7874E-001
   7.7719    0.7637E-001
   7.7794    0.7363E-001
   7.7869    0.7060E-001
   7.7944    0.6733E-001
   7.8020    0.6393E-001
   7.8095    0.6050E-001
   7.8170    0.5714E-001
   7.8245    0.5399E-001
   7.8320    0.5117E-001
   7.8395    0.4881E-001
   7.8470    0.4702E-001
   7.8545    0.4593E-001
   7.8620    0.4563E-001
   7.8695    0.4622E-001
   7.8770    0.4777E-001
   7.8845    0.5032E-001
   7.8920    0.5390E-001
   7.8995    0.5850E-001
   7.9070    0.6410E-001
   7.9145    0.7062E-001
   7.9220    0.7799E-001
   7.9295    0.8609E-001
   7.9370    0.9478E-001
   7.9445    0.1039E+000
   7.9520    0.1133E+000
   7.9595    0.1227E+000
   7.9670    0.1321E+000
   7.9745    0.1412E+000
   7.9820    0.1498E+000
   7.9895    0.1577E+000
   7.9970    0.1650E+000
   8.0045    0.1714E+000
   8.0120    0.1768E+000
   8.0195    0.1813E+000
   8.0270    0.1849E+000
   8.0345    0.1874E+000
   8.0420    0.1891E+000
   8.0495    0.1900E+000
   8.0570    0.1901E+000
   8.0645    0.1897E+000
   8.0720    0.1888E+000
   8.0795    0.1876E+000
   8.0870    0.1862E+000
   8.0945    0.1848E+000
   8.1020    0.1835E+000
   8.1095    0.1824E+000
   8.1170    0.1817E+000
   8.1245    0.1813E+000
   8.1320    0.1814E+000
   8.1395    0.1820E+000
   8.1470    0.1832E+000
   8.1545    0.1849E+000
   8.1620    0.1872E+000
   8.1695    0.1899E+000
   8.1770    0.1931E+000
   8.1845    0.1967E+000
   8.1920    0.2006E+000
   8.1995    0.2047E+000
   8.2071    0.2090E+000
   8.2146    0.2134E+000
   8.2221    0.2178E+000
   8.2296    0.2221E+000
   8.2371    0.2263E+000
   8.2446    0.2303E+000
   8.2521    0.2341E+000
   8.2596    0.2377E+000
   8.2671    0.2411E+000
   8.2746    0.2442E+000
   8.2821    0.2471E+000
   8.2896    0.2498E+000
   8.2971    0.2522E+000
   8.3046    0.2544E+000
   8.3121    0.2565E+000
   8.3196    0.2582E+000
   8.3271    0.2598E+000
   8.3346    0.2610E+000
   8.3421    0.2618E+000
   8.3496    0.2623E+000
   8.3571    0.2622E+000
   8.3646    0.2616E+000
   8.3721    0.2603E+000
   8.3796    0.2583E+000
   8.3871    0.2555E+000
   8.3946    0.2518E+000
   8.4021    0.2473E+000
   8.4096    0.2419E+000
   8.4171    0.2356E+000
   8.4246    0.2285E+000
   8.4321    0.2207E+000
   8.4396    0.2123E+000
   8.4471    0.2034E+000
   8.4546    0.1942E+000
   8.4621    0.1847E+000
   8.4696    0.1753E+000
   8.4771    0.1660E+000
   8.4846    0.1569E+000
   8.4921    0.1483E+000
   8.4996    0.1403E+000
   8.5071    0.1329E+000
   8.5146    0.1263E+000
   8.5221    0.1204E+000
   8.5296    0.1153E+000
   8.5371    0.1111E+000
   8.5446    0.1075E+000
   8.5521    0.1046E+000
   8.5596    0.1024E+000
   8.5671    0.1006E+000
   8.5746    0.9931E-001
   8.5821    0.9826E-001
   8.5896    0.9738E-001
   8.5971    0.9655E-001
   8.6047    0.9566E-001
   8.6122    0.9461E-001
   8.6197    0.9330E-001
   8.6272    0.9165E-001
   8.6347    0.8962E-001
   8.6422    0.8715E-001
   8.6497    0.8424E-001
   8.6572    0.8089E-001
   8.6647    0.7712E-001
   8.6722    0.7297E-001
   8.6797    0.6850E-001
   8.6872    0.6377E-001
   8.6947    0.5886E-001
   8.7022    0.5385E-001
   8.7097    0.4883E-001
   8.7172    0.4387E-001
   8.7247    0.3906E-001
   8.7322    0.3445E-001
   8.7397    0.3011E-001
   8.7472    0.2607E-001
   8.7547    0.2238E-001
   8.7622    0.1907E-001
   8.7697    0.1614E-001
   8.7772    0.1360E-001
   8.7847    0.1144E-001
   8.7922    0.9679E-002
   8.7997    0.8290E-002
   8.8072    0.7269E-002
   8.8147    0.6609E-002
   8.8222    0.6303E-002
   8.8297    0.6349E-002
   8.8372    0.6748E-002
   8.8447    0.7506E-002
   8.8522    0.8630E-002
   8.8597    0.1013E-001
   8.8672    0.1202E-001
   8.8747    0.1431E-001
   8.8822    0.1701E-001
   8.8897    0.2011E-001
   8.8972    0.2363E-001
   8.9047    0.2754E-001
   8.9122    0.3182E-001
   8.9197    0.3645E-001
   8.9272    0.4137E-001
   8.9347    0.4654E-001
   8.9422    0.5187E-001
   8.9497    0.5730E-001
   8.9572    0.6275E-001
   8.9647    0.6813E-001
   8.9722    0.7334E-001
   8.9797    0.7831E-001
   8.9872    0.8295E-001
   8.9947    0.8718E-001
   9.0023    0.9096E-001
   9.0098    0.9423E-001
   9.0173    0.9696E-001
   9.0248    0.9913E-001
   9.0323    0.1007E+000
   9.0398    0.1018E+000
   9.0473    0.1024E+000
   9.0548    0.1025E+000
   9.0623    0.1022E+000
   9.0698    0.1015E+000
   9.0773    0.1005E+000
   9.0848    0.9925E-001
   9.0923    0.9784E-001
   9.0998    0.9631E-001
   9.1073    0.9472E-001
   9.1148    0.9312E-001
   9.1223    0.9154E-001
   9.1298    0.9004E-001
   9.1373    0.8863E-001
   9.1448    0.8735E-001
   9.1523    0.8622E-001
   9.1598    0.8525E-001
   9.1673    0.8445E-001
   9.1748    0.8384E-001
   9.1823    0.8342E-001
   9.1898    0.8319E-001
   9.1973    0.8316E-001
   9.2048    0.8332E-001
   9.2123    0.8367E-001
   9.2198    0.8420E-001
   9.2273    0.8491E-001
   9.2348    0.8578E-001
   9.2423    0.8678E-001
   9.2498    0.8791E-001
   9.2573    0.8912E-001
   9.2648    0.9039E-001
   9.2723    0.9167E-001
   9.2798    0.9291E-001
   9.2873    0.9407E-001
   9.2948    0.9510E-001
   9.3023    0.9594E-001
   9.3098    0.9655E-001
   9.3173    0.9688E-001
   9.3248    0.9689E-001
   9.3323    0.9657E-001
   9.3398    0.9590E-001
   9.3473    0.9488E-001
   9.3548    0.9356E-001
   9.3623    0.9198E-001
   9.3698    0.9020E-001
   9.3773    0.8832E-001
   9.3848    0.8645E-001
   9.3923    0.8471E-001
   9.3998    0.8324E-001
   9.4074    0.8218E-001
   9.4149    0.8167E-001
   9.4224    0.8184E-001
   9.4299    0.8281E-001
   9.4374    0.8468E-001
   9.4449    0.8752E-001
   9.4524    0.9137E-001
   9.4599    0.9623E-001
   9.4674    0.1021E+000
   9.4749    0.1088E+000
   9.4824    0.1163E+000
   9.4899    0.1245E+000
   9.4974    0.1331E+000
   9.5049    0.1421E+000
   9.5124    0.1511E+000
   9.5199    0.1600E+000
   9.5274    0.1686E+000
   9.5349    0.1767E+000
   9.5424    0.1841E+000
   9.5499    0.1907E+000
   9.5574    0.1964E+000
   9.5649    0.2011E+000
   9.5724    0.2048E+000
   9.5799    0.2074E+000
   9.5874    0.2090E+000
   9.5949    0.2096E+000
   9.6024    0.2094E+000
   9.6099    0.2084E+000
   9.6174    0.2067E+000
   9.6249    0.2045E+000
   9.6324    0.2019E+000
   9.6399    0.1990E+000
   9.6474    0.1959E+000
   9.6549    0.1928E+000
   9.6624    0.1897E+000
   9.6699    0.1867E+000
   9.6774    0.1840E+000
   9.6849    0.1815E+000
   9.6924    0.1793E+000
   9.6999    0.1775E+000
   9.7074    0.1760E+000
   9.7149    0.1750E+000
   9.7224    0.1744E+000
   9.7299    0.1743E+000
   9.7374    0.1745E+000
   9.7449    0.1752E+000
   9.7524    0.1764E+000
   9.7599    0.1779E+000
   9.7674    0.1797E+000
   9.7749    0.1819E+000
   9.7824    0.1843E+000
   9.7899    0.1869E+000
   9.7974    0.1895E+000
   9.8050    0.1921E+000
   9.8125    0.1945E+000
   9.8200    0.1967E+000
   9.8275    0.1984E+000
   9.8350    0.1996E+000
   9.8425    0.2002E+000
   9.8500    0.1999E+000
   9.8575    0.1987E+000
   9.8650    0.1965E+000
   9.8725    0.1933E+000
   9.8800    0.1889E+000
   9.8875    0.1835E+000
   9.8950    0.1770E+000
   9.9025    0.1694E+000
   9.9100    0.1610E+000
   9.9175    0.1518E+000
   9.9250    0.1420E+000
   9.9325    0.1316E+000
   9.9400    0.1210E+000
   9.9475    0.1102E+000
   9.9550    0.9953E-001
   9.9625    0.8904E-001
   9.9700    0.7891E-001
   9.9775    0.6927E-001
   9.9850    0.6023E-001
   9.9925    0.5186E-001
  10.0000    0.4421E-001
